Sample_index,EXG Channel 0,EXG Channel 1,EXG Channel 2,EXG Channel 3,EXG Channel 4,EXG Channel 5,EXG Channel 6,EXG Channel 7,EXG Channel 8,EXG Channel 9,EXG Channel 10,EXG Channel 11,EXG Channel 12,EXG Channel 13,EXG Channel 14,EXG Channel 15,Accel Channel 0,Accel Channel 1,Accel Channel 2,Not Used,Digital Channel 0 (D11),Digital Channel 1 (D12),Digital Channel 2 (D13),Digital Channel 3 (D17),Not Used,Digital Channel 4 (D18),Analog Channel 0,Analog Channel 1,Analog Channel 2,Timestamp,Marker Channel
210.000000,13284.379337,13350.495797,8752.876073,10866.702898,8731.463102,31606.953634,-4811.190642,-2967.507001,9966.687556,3125.757352,4691.094719,8185.097061,26533.979360,21937.164299,2087.697636,6100.729835,-0.008000,-0.014000,1.006000,192.000000,0.000000,0.000000,0.000000,0.000000,0.000000,0.000000,0.000000,0.000000,0.000000,1771415885.886450,101.000000
212.000000,13300.629056,13369.830056,8808.554269,10926.113835,8833.632926,31655.300457,-4768.409403,-2936.818056,9975.158867,3134.183959,4706.070388,8194.350683,26576.201806,21960.454817,2126.142636,6117.806568,-0.008000,-0.014000,1.006000,192.000000,0.000000,0.000000,0.000000,0.000000,0.000000,0.000000,0.000000,0.000000,0.000000,1771415885.886499,0.000000
214.000000,13285.340462,13358.341260,8727.171567,10875.062451,8711.525346,31597.878825,-4814.565756,-2965.741213,9971.671995,3146.052736,4697.777891,8203.939581,26566.568204,21960.499520,2120.867624,6133.877472,-0.008000,-0.014000,1.006000,192.000000,0.000000,0.000000,0.000000,0.000000,0.000000,0.000000,0.000000,0.000000,0.000000,1771415885.886536,0.000000
216.000000,13307.446338,13368.935987,8783.386205,10908.746530,8801.312304,31628.992454,-4783.675645,-2937.063925,9957.411582,3117.911889,4681.684635,8184.560619,26535.253410,21930.078796,2089.686941,6121.852234,-0.002000,-0.014000,1.006000,192.000000,127.500000,120.000000,127.500000,72.000000,15.500000,56.000000,0.000000,0.000000,0.000000,1771415885.886574,0.000000
218.000000,13313.727178,13376.200304,8781.173382,10906.041969,8790.941094,31629.841820,-4784.234438,-2931.408934,10002.606809,3156.446297,4735.820560,8219.317582,26602.465105,21976.145741,2132.758752,6133.542196,-0.002000,-0.014000,1.006000,192.000000,0.000000,0.000000,0.000000,0.000000,0.000000,0.000000,0.000000,0.000000,0.000000,1771415885.886611,0.000000
220.000000,13286.748622,13349.713486,8738.705067,10872.961387,8726.344553,31601.343346,-4816.488006,-2957.918102,9970.420297,3125.824407,4692.525231,8190.617942,26588.964652,21945.143872,2099.029970,6128.110722,-0.002000,-0.014000,1.006000,192.000000,0.000000,0.000000,0.000000,0.000000,0.000000,0.000000,0.000000,0.000000,0.000000,1771415885.886646,0.000000
222.000000,13327.585259,13389.343129,8816.846766,10925.085655,8841.545444,31657.066245,-4769.214066,-2919.786026,9997.756481,3150.701898,4717.425074,8210.041608,26589.255224,21977.330384,2118.386581,6128.490702,-0.002000,-0.014000,1.006000,192.000000,0.000000,0.000000,0.000000,0.000000,0.000000,0.000000,0.000000,0.000000,0.000000,1771415885.886656,0.000000
224.000000,13290.995454,13355.994327,8748.428076,10864.199503,8723.952916,31598.012936,-4813.470520,-2954.319472,9991.296827,3152.870018,4718.944993,8210.309829,26579.286346,21985.421715,2123.818055,6122.992173,-0.002000,-0.014000,1.006000,192.000000,0.000000,0.000000,0.000000,0.000000,0.000000,0.000000,0.000000,0.000000,0.000000,1771415885.886670,0.000000
226.000000,13294.214105,13359.883530,8788.840030,10894.173192,8812.309362,31626.019672,-4790.135299,-2947.993928,9969.548579,3127.232567,4686.065577,8182.325444,26582.549701,21948.384875,2097.621810,6108.999981,0.002000,-0.012000,1.000000,192.000000,0.000000,8.000000,127.500000,80.000000,15.500000,32.000000,0.000000,0.000000,0.000000,1771415885.886686,0.000000
228.000000,13297.075128,13350.585204,8785.643731,10885.813640,8786.962484,31620.632901,-4790.604686,-2943.836503,9993.263780,3143.929320,4720.956650,8203.358436,26651.728350,21980.616090,2139.084296,6147.154408,0.002000,-0.012000,1.000000,192.000000,0.000000,0.000000,0.000000,0.000000,0.000000,0.000000,0.000000,0.000000,0.000000,1771415885.886700,0.000000
230.000000,13271.996471,13329.105178,8757.122905,10849.939090,8721.360114,31583.864282,-4818.812587,-2966.747042,9965.949949,3105.104340,4690.446519,8172.960064,26554.006523,21943.087511,2103.299153,6131.485835,0.002000,-0.012000,1.000000,192.000000,0.000000,0.000000,0.000000,0.000000,0.000000,0.000000,0.000000,0.000000,0.000000,1771415885.886711,0.000000
232.000000,13321.215012,13376.826152,8832.627098,10911.451091,8843.981784,31645.935076,-4769.325825,-2922.982326,9984.881876,3133.759276,4713.178243,8194.954180,26585.343669,21974.894044,2136.178569,6125.808492,0.002000,-0.012000,1.000000,192.000000,0.000000,0.000000,0.000000,0.000000,0.000000,0.000000,0.000000,0.000000,0.000000,1771415885.886722,0.000000
234.000000,13280.892465,13343.119722,8762.062640,10857.672794,8723.997620,31589.072238,-4813.202299,-2957.225198,9994.403719,3142.632919,4716.888632,8205.638314,26617.306664,21989.176808,2133.809284,6118.275955,0.002000,-0.012000,1.000000,192.000000,0.000000,0.000000,0.000000,0.000000,0.000000,0.000000,0.000000,0.000000,0.000000,1771415885.886732,0.000000
236.000000,13299.712634,13365.873798,8797.557211,10892.295646,8803.882754,31633.105175,-4787.855421,-2943.680041,9967.961606,3116.056695,4685.082100,8179.978511,26588.383506,21958.599622,2100.214613,6110.810472,0.002000,-0.010000,1.004000,192.000000,0.000000,8.000000,127.500000,88.000000,15.500000,48.000000,0.000000,0.000000,0.000000,1771415885.886743,0.000000
238.000000,13295.197582,13360.531731,8786.716615,10896.967160,8776.412460,31627.137259,-4788.056587,-2944.216483,9995.275437,3150.634843,4721.917775,8208.722855,26619.921818,22007.371128,2140.201883,6140.068905,0.002000,-0.010000,1.004000,192.000000,0.000000,0.000000,0.000000,0.000000,0.000000,0.000000,0.000000,0.000000,0.000000,1771415885.886754,0.000000
240.000000,13263.256939,13331.541518,8735.821692,10857.426924,8716.532137,31591.799151,-4820.108988,-2970.815059,9954.550559,3111.273421,4677.929542,8173.205933,26562.880166,21957.526738,2102.762711,6125.696734,0.002000,-0.010000,1.004000,192.000000,0.000000,0.000000,0.000000,0.000000,0.000000,0.000000,0.000000,0.000000,0.000000,1771415885.886764,0.000000
242.000000,13318.398692,13378.636644,8806.229687,10919.877698,8827.352086,31655.658085,-4771.426889,-2929.330221,9980.545638,3143.124657,4712.999429,8195.177698,26598.508847,21996.642291,2117.783084,6129.116551,0.002000,-0.010000,1.004000,192.000000,0.000000,0.000000,0.000000,0.000000,0.000000,0.000000,0.000000,0.000000,0.000000,1771415885.886775,0.000000
244.000000,13279.886637,13345.667821,8734.324126,10866.211160,8695.454442,31600.046945,-4812.531747,-2958.812172,9986.580609,3141.962366,4708.149100,8199.849212,26633.176402,21987.522779,2111.211671,6141.566472,0.002000,-0.010000,1.004000,192.000000,0.000000,0.000000,0.000000,0.000000,0.000000,0.000000,0.000000,0.000000,0.000000,1771415885.886785,0.000000
246.000000,13298.796213,13357.760114,8783.654426,10894.061434,8784.481440,31627.718404,-4790.872907,-2944.194131,9963.558312,3112.569822,4677.594266,8175.418755,26554.095930,21961.728866,2081.036816,6129.921213,0.003000,-0.010000,1.002000,192.000000,0.000000,16.000000,127.500000,88.000000,15.500000,32.000000,0.000000,0.000000,0.000000,1771415885.886796,0.000000
248.000000,13291.397785,13351.635736,8776.859495,10884.338425,8768.991681,31628.031329,-4791.431700,-2946.474009,9995.968341,3148.287910,4725.784627,8205.437148,26585.142503,22009.203972,2136.312680,6147.690850,0.003000,-0.010000,1.002000,192.000000,0.000000,0.000000,0.000000,0.000000,0.000000,0.000000,0.000000,0.000000,0.000000,1771415885.886806,0.000000
250.000000,13263.346346,13321.460881,8726.165739,10846.943956,8712.240602,31592.290889,-4822.254756,-2975.486574,9957.031603,3099.292886,4675.604960,8163.281758,26570.077428,21963.092323,2103.500319,6135.375039,0.003000,-0.010000,1.002000,192.000000,0.000000,0.000000,0.000000,0.000000,0.000000,0.000000,0.000000,0.000000,0.000000,1771415885.886817,0.000000
252.000000,13314.084806,13373.875722,8813.315190,10913.082768,8833.342354,31655.680437,-4769.974025,-2928.056172,9987.921713,3137.179093,4706.271554,8191.579067,26631.075338,21997.871637,2127.260223,6120.399370,0.003000,-0.010000,1.002000,192.000000,0.000000,0.000000,0.000000,0.000000,0.000000,0.000000,0.000000,0.000000,0.000000,1771415885.886828,0.000000
254.000000,13268.375488,13325.797120,8744.695335,10846.429866,8697.086119,31596.649479,-4817.247965,-2968.557533,9986.401795,3132.038192,4714.027609,8194.507145,26578.258166,21979.543207,2130.680040,6131.977574,0.003000,-0.010000,1.002000,192.000000,0.000000,0.000000,0.000000,0.000000,0.000000,0.000000,0.000000,0.000000,0.000000,1771415885.886839,0.000000
0.000000,13290.302550,13352.350992,8792.058681,10887.959407,8788.638865,31625.796154,-4790.112947,-2950.117344,9959.199722,3104.545546,4678.823612,8168.959101,26542.987113,21958.219642,2097.979438,6125.383809,0.000500,-0.007000,1.000000,192.000000,127.500000,120.000000,127.500000,112.000000,15.500000,24.000000,0.000000,0.000000,0.000000,1771415885.886849,0.000000
2.000000,13291.800117,13354.250891,8784.369681,10888.294683,8764.811905,31622.890427,-4789.978837,-2949.044460,9991.520344,3151.014823,4719.101455,8208.141709,26611.629321,22007.862867,2133.250491,6126.009658,0.000500,-0.007000,1.000000,192.000000,0.000000,0.000000,0.000000,0.000000,0.000000,0.000000,0.000000,0.000000,0.000000,1771415885.886860,0.000000
4.000000,13266.095610,13326.065341,8741.543739,10853.694183,8688.257180,31579.259822,-4819.438436,-2977.408824,9965.301748,3110.334648,4669.614693,8175.932846,26553.201861,21965.863939,2083.450804,6120.041742,0.000500,-0.007000,1.000000,192.000000,0.000000,0.000000,0.000000,0.000000,0.000000,0.000000,0.000000,0.000000,0.000000,1771415885.886870,0.000000
6.000000,13320.320942,13374.792144,8813.404597,10916.189661,8816.735007,31639.386015,-4770.309302,-2935.611062,9976.030585,3132.306413,4707.545603,8194.328331,26613.640978,21996.284663,2112.441017,6114.699675,0.000500,-0.007000,1.000000,192.000000,0.000000,0.000000,0.000000,0.000000,0.000000,0.000000,0.000000,0.000000,0.000000,1771415885.886881,0.000000
8.000000,13269.962462,13325.305381,8734.435884,10859.907968,8695.432090,31584.624241,-4814.476349,-2969.764527,9987.877010,3130.585328,4708.618487,8199.446881,26594.105553,21992.842495,2112.731589,6128.110722,0.000500,-0.007000,1.000000,192.000000,0.000000,0.000000,0.000000,0.000000,0.000000,0.000000,0.000000,0.000000,0.000000,1771415885.886891,0.000000
10.000000,13298.796213,13362.006946,8785.599027,10894.486117,8773.506734,31635.854439,-4785.352026,-2944.484704,9950.102562,3106.914831,4676.767251,8178.168020,26544.596439,21953.235203,2086.960028,6122.433379,-0.000750,-0.008500,0.998000,192.000000,127.500000,120.000000,127.500000,88.000000,15.500000,16.000000,0.000000,0.000000,0.000000,1771415885.886902,0.000000
12.000000,13297.723329,13365.583225,8777.038309,10902.979780,8772.031518,31644.705730,-4788.973008,-2946.496361,9993.777870,3160.067279,4725.918737,8216.322448,26598.374736,22025.632504,2133.451657,6148.026126,-0.000750,-0.008500,0.998000,192.000000,0.000000,0.000000,0.000000,0.000000,0.000000,0.000000,0.000000,0.000000,0.000000,1771415885.886913,0.000000
14.000000,13270.677718,13339.454036,8733.228890,10858.209235,8719.527271,31605.545474,-4820.757189,-2972.178515,9952.360088,3122.695163,4683.629237,8182.928942,26595.893692,21962.913509,2104.126168,6137.386696,-0.000750,-0.008500,0.998000,192.000000,0.000000,0.000000,0.000000,0.000000,0.000000,0.000000,0.000000,0.000000,0.000000,1771415885.886923,0.000000
16.000000,13318.264582,13383.822248,8814.879813,10913.149823,8835.711638,31657.312114,-4771.985682,-2930.470160,9975.114164,3139.637785,4711.032475,8194.462442,26602.040422,22003.861905,2134.703354,6137.766676,-0.000750,-0.008500,0.998000,192.000000,0.000000,0.000000,0.000000,0.000000,0.000000,0.000000,0.000000,0.000000,0.000000,1771415885.886934,0.000000
18.000000,13282.971177,13346.941870,8739.241509,10850.631994,8725.428131,31591.821503,-4815.616288,-2961.181457,9993.375539,3150.567788,4714.519347,8205.437148,26600.296986,21997.066974,2133.228139,6143.108743,-0.000750,-0.008500,0.998000,192.000000,0.000000,0.000000,0.000000,0.000000,0.000000,0.000000,0.000000,0.000000,0.000000,1771415885.886944,0.000000
20.000000,13312.721349,13377.250836,8787.320112,10893.770861,8791.924571,31630.802945,-4787.654255,-2936.549835,9966.352280,3123.790398,4688.390158,8183.644197,26564.690657,21973.128256,2103.097988,6128.580109,-0.001375,-0.011250,0.996000,192.000000,127.500000,120.000000,127.500000,72.000000,15.500000,8.000000,0.000000,0.000000,0.000000,1771415885.886954,0.000000
22.000000,13305.099404,13369.718298,8780.212257,10899.045873,8773.596141,31629.864172,-4786.089633,-2933.599405,10000.751615,3167.175134,4731.506673,8221.709218,26621.017053,22007.482887,2135.597424,6150.238949,-0.001375,-0.011250,0.996000,192.000000,0.000000,0.000000,0.000000,0.000000,0.000000,0.000000,0.000000,0.000000,0.000000,1771415885.886965,0.000000
24.000000,13280.423079,13344.796103,8733.810035,10863.506599,8709.424282,31591.061543,-4816.599764,-2959.683890,9964.564140,3126.316145,4692.547583,8188.673340,26584.784875,21978.895006,2099.789929,6134.995059,-0.001375,-0.011250,0.996000,192.000000,0.000000,0.000000,0.000000,0.000000,0.000000,0.000000,0.000000,0.000000,0.000000,1771415885.886976,0.000000
26.000000,13318.532803,13386.996196,8823.217013,10918.380132,8825.854519,31648.326713,-4770.130488,-2922.021201,9986.893533,3145.896273,4723.035362,8203.939581,26593.882035,22010.276855,2113.849177,6123.461559,-0.001375,-0.011250,0.996000,192.000000,0.000000,0.000000,0.000000,0.000000,0.000000,0.000000,0.000000,0.000000,0.000000,1771415885.886986,0.000000
28.000000,13283.731137,13349.020582,8751.534969,10860.265596,8704.663361,31595.397782,-4812.956430,-2955.884094,9982.020853,3146.633881,4719.749656,8205.794776,26610.847010,22009.181620,2116.129055,6125.316754,-0.001375,-0.011250,0.996000,192.000000,0.000000,0.000000,0.000000,0.000000,0.000000,0.000000,0.000000,0.000000,0.000000,1771415885.887012,0.000000
30.000000,13299.109137,13364.532693,8802.184022,10892.452108,8779.675815,31624.767974,-4789.285933,-2945.065849,9966.732260,3122.941032,4691.005312,8186.885200,26580.739210,21978.895006,2075.918266,6116.733684,-0.003687,-0.009625,0.997000,192.000000,127.500000,104.000000,127.500000,96.000000,15.500000,24.000000,0.000000,0.000000,0.000000,1771415885.887022,0.000000
32.000000,13279.439602,13349.534672,8791.678702,10896.207201,8754.887730,31614.285006,-4795.410311,-2959.102745,9981.350300,3146.119791,4711.300696,8204.520727,26605.326129,22011.014463,2135.239796,6145.075696,-0.003687,-0.009625,0.997000,192.000000,0.000000,0.000000,0.000000,0.000000,0.000000,0.000000,0.000000,0.000000,0.000000,1771415885.887033,0.000000
34.000000,13259.703011,13328.389922,8747.712820,10867.306395,8694.448613,31580.511520,-4821.047762,-2977.967617,9940.267794,3105.886651,4665.256103,8173.988244,26578.571091,21965.729829,2093.531441,6145.701545,-0.003687,-0.009625,0.997000,192.000000,0.000000,0.000000,0.000000,0.000000,0.000000,0.000000,0.000000,0.000000,0.000000,1771415885.887043,0.000000
36.000000,13313.190736,13381.877647,8813.225783,10929.354838,8813.024618,31650.226611,-4771.896276,-2933.733515,9967.939254,3138.676660,4701.823557,8197.681093,26589.657556,21990.786134,2112.217499,6143.108743,-0.003687,-0.009625,0.997000,192.000000,0.000000,0.000000,0.000000,0.000000,0.000000,0.000000,0.000000,0.000000,0.000000,1771415885.887055,0.000000
38.000000,13279.774878,13345.109027,8737.922756,10874.682471,8698.516631,31586.546491,-4812.576450,-2960.533257,9981.730280,3141.582387,4707.970286,8204.297209,26589.702259,22004.666567,2116.598441,6149.568397,-0.003687,-0.009625,0.997000,192.000000,0.000000,0.000000,0.000000,0.000000,0.000000,0.000000,0.000000,0.000000,0.000000,1771415885.887067,0.000000
40.000000,13305.635846,13369.606539,8783.341501,10900.901067,8780.592237,31621.906951,-4784.860287,-2935.879282,9958.037431,3117.755427,4685.529135,8187.823974,26566.791721,21985.645233,2084.501336,6133.810417,-0.003687,-0.009625,0.997000,192.000000,0.000000,0.000000,127.500000,72.000000,15.500000,40.000000,0.000000,0.000000,0.000000,1771415885.887078,0.000000
42.000000,13317.146995,13380.000100,8790.650522,10896.743643,8766.644748,31622.935131,-4780.971084,-2927.318564,9998.851716,3157.675643,4736.468761,8224.078503,26614.043309,22024.917248,2128.467218,6147.534388,-0.003687,-0.009625,0.997000,192.000000,0.000000,0.000000,0.000000,0.000000,0.000000,0.000000,0.000000,0.000000,0.000000,1771415885.887088,0.000000
44.000000,13289.229666,13350.406390,8734.972326,10859.639747,8714.095797,31592.357945,-4816.778578,-2957.895751,9963.737126,3122.426942,4703.119958,8197.301113,26554.610020,21984.214721,2089.150499,6135.106818,-0.003687,-0.009625,0.997000,192.000000,0.000000,0.000000,0.000000,0.000000,0.000000,0.000000,0.000000,0.000000,0.000000,1771415885.887099,0.000000
46.000000,13330.602745,13392.964112,8809.805967,10916.815509,8832.649449,31653.154689,-4770.264598,-2922.311774,9988.569914,3138.944881,4723.057714,8207.515860,26605.348480,21996.105849,2115.324392,6134.972708,-0.003687,-0.009625,0.997000,192.000000,0.000000,0.000000,0.000000,0.000000,0.000000,0.000000,0.000000,0.000000,0.000000,1771415885.887110,0.000000
48.000000,13291.956579,13352.015716,8732.938317,10857.672794,8706.831480,31598.147046,-4815.973916,-2961.315568,9986.692367,3140.084820,4719.526138,8207.001770,26632.237629,22011.237980,2116.240813,6148.897844,-0.003687,-0.009625,0.997000,192.000000,0.000000,0.000000,0.000000,0.000000,0.000000,0.000000,0.000000,0.000000,0.000000,1771415885.887120,0.000000
50.000000,13317.750492,13378.703699,8785.509620,10892.072128,8796.663141,31630.847648,-4790.559982,-2939.679079,9967.380460,3111.966325,4687.518440,8186.013482,26565.987058,21985.578178,2088.837575,6135.464446,-0.002844,-0.010812,0.997500,192.000000,127.500000,120.000000,127.500000,80.000000,15.500000,24.000000,0.000000,0.000000,0.000000,1771415885.887131,0.000000
52.000000,13316.767015,13380.111859,8797.534859,10893.994378,8790.002321,31633.731024,-4789.017712,-2939.723783,10010.832251,3163.464745,4744.515389,8229.018239,26635.746853,22047.425455,2133.138732,6135.978536,-0.002844,-0.010812,0.997500,192.000000,0.000000,0.000000,0.000000,0.000000,0.000000,0.000000,0.000000,0.000000,0.000000,1771415885.887141,0.000000
54.000000,13275.103363,13334.670762,8738.772123,10845.088761,8711.681808,31589.318107,-4830.569605,-2985.611914,9966.419335,3114.223851,4685.842059,8186.259352,26576.961765,21974.871692,2095.386636,6145.902711,-0.002844,-0.010812,0.997500,192.000000,0.000000,0.000000,0.000000,0.000000,0.000000,0.000000,0.000000,0.000000,0.000000,1771415885.887152,0.000000
56.000000,13321.550288,13386.571513,8822.255888,10916.390826,8822.635868,31651.008922,-4777.998302,-2943.322413,9975.918827,3132.865206,4701.667094,8195.736491,26599.939358,22005.627692,2126.544967,6160.565455,-0.002844,-0.010812,0.997500,192.000000,0.000000,0.000000,0.000000,0.000000,0.000000,0.000000,0.000000,0.000000,0.000000,1771415885.887162,0.000000
58.000000,13280.445430,13345.690172,8750.797361,10860.869093,8715.526308,31589.742790,-4821.897128,-2980.515716,9985.351263,3142.141180,4704.103435,8206.688846,26642.117100,22007.438184,2134.055154,6161.191304,-0.002844,-0.010812,0.997500,192.000000,0.000000,0.000000,0.000000,0.000000,0.000000,0.000000,0.000000,0.000000,0.000000,1771415885.887173,0.000000
60.000000,13304.808832,13370.388850,8794.785594,10898.755300,8787.789498,31630.959407,-4794.337427,-2959.035690,9965.011175,3117.084875,4672.162792,8183.778308,26604.566169,21986.539303,2101.443958,6130.100027,-0.002844,-0.010812,0.997500,192.000000,0.000000,0.000000,0.000000,0.000000,0.000000,0.000000,0.000000,0.000000,0.000000,1771415885.887183,0.000000
62.000000,13310.285009,13380.335376,8793.533897,10911.786367,8771.204504,31643.386977,-4788.660084,-2951.391393,9990.894495,3157.787401,4721.649554,8220.435169,26609.572960,22028.515879,2135.887997,6156.922121,-0.002844,-0.010812,0.997500,192.000000,0.000000,0.000000,127.500000,80.000000,15.500000,48.000000,0.000000,0.000000,0.000000,1771415885.887194,0.000000
64.000000,13274.388108,13343.387943,8733.430056,10869.899198,8699.544811,31604.539645,-4821.830073,-2978.906391,9962.954815,3129.847721,4691.407644,8200.117433,26592.473876,21980.884311,2091.072749,6151.244778,-0.002844,-0.010812,0.997500,192.000000,0.000000,0.000000,0.000000,0.000000,0.000000,0.000000,0.000000,0.000000,0.000000,1771415885.887204,0.000000
66.000000,13317.258753,13386.280940,8808.688379,10935.859196,8816.220917,31668.532690,-4769.214066,-2935.432248,9969.347414,3134.429828,4699.431920,8202.821994,26618.536010,22016.624751,2119.772389,6159.023185,-0.002844,-0.010812,0.997500,192.000000,0.000000,0.000000,0.000000,0.000000,0.000000,0.000000,0.000000,0.000000,0.000000,1771415885.887214,0.000000
68.000000,13277.495000,13344.751399,8729.965535,10877.163515,8700.349474,31618.040099,-4813.895203,-2967.238780,9984.948931,3149.763125,4713.871147,8220.792797,26589.724611,22008.466364,2110.362304,6154.150504,-0.002844,-0.010812,0.997500,192.000000,0.000000,0.000000,0.000000,0.000000,0.000000,0.000000,0.000000,0.000000,0.000000,1771415885.887225,0.000000
70.000000,13298.125660,13364.957376,8778.178248,10898.218858,8776.121888,31639.006035,-4788.794194,-2943.635338,9954.818780,3102.712703,4675.560257,8185.477040,26574.748942,21963.874634,2090.268086,6152.921158,-0.002844,-0.010812,0.997500,192.000000,0.000000,0.000000,0.000000,0.000000,0.000000,0.000000,0.000000,0.000000,0.000000,1771415885.887235,0.000000
72.000000,13311.402596,13377.764926,8779.899333,10897.257733,8768.455239,31644.795137,-4784.010921,-2931.118361,9987.340568,3150.724250,4740.670889,8226.291326,26620.726481,22010.209800,2128.221348,6154.262263,-0.004000,-0.012000,1.008000,192.000000,127.500000,112.000000,127.500000,80.000000,15.500000,64.000000,0.000000,0.000000,0.000000,1771415885.887246,0.000000
74.000000,13282.658253,13348.081809,8738.526254,10852.822465,8702.249372,31603.533817,-4819.527843,-2961.472030,9978.131649,3115.654363,4697.129690,8196.652913,26575.173625,21974.625823,2097.957086,6140.985327,-0.004000,-0.012000,1.008000,192.000000,0.000000,0.000000,0.000000,0.000000,0.000000,0.000000,0.000000,0.000000,0.000000,1771415886.367086,0.000000
76.000000,13325.260678,13386.951493,8812.801100,10911.629905,8829.319040,31671.304306,-4774.533781,-2928.480855,9978.601036,3135.770933,4720.867243,8206.957067,26616.122021,21994.407117,2122.968688,6139.554815,-0.004000,-0.012000,1.008000,192.000000,0.000000,0.000000,0.000000,0.000000,0.000000,0.000000,0.000000,0.000000,0.000000,1771415886.367155,0.000000
78.000000,13291.442489,13351.881606,8746.371716,10853.202445,8716.778006,31613.547398,-4818.611421,-2966.165896,10001.109243,3138.609605,4724.287060,8208.566392,26619.474783,21993.445992,2137.184398,6156.206865,-0.004000,-0.012000,1.008000,192.000000,0.000000,0.000000,0.000000,0.000000,0.000000,0.000000,0.000000,0.000000,0.000000,1771415886.367205,0.000000
80.000000,13311.514355,13372.825190,8792.081033,10893.346178,8790.024673,31647.522050,-4795.387959,-2951.436097,9971.515533,3110.647572,4694.648647,8182.548962,26626.493231,21976.369259,2106.473101,6144.583958,-0.004000,-0.012000,1.008000,192.000000,0.000000,0.000000,0.000000,0.000000,0.000000,0.000000,0.000000,0.000000,0.000000,1771415886.367254,0.000000
82.000000,13314.688303,13372.825190,8798.160708,10896.922457,8778.357062,31651.075977,-4791.096424,-2951.771373,10006.630123,3155.686337,4740.581482,8218.423512,26634.785728,22020.782175,2142.995851,6155.335147,-0.006000,-0.014000,1.006000,192.000000,127.500000,104.000000,127.500000,72.000000,15.500000,56.000000,0.000000,0.000000,0.000000,1771415886.367314,0.000000
84.000000,13275.371584,13338.761132,8748.942166,10856.443448,8701.847041,31610.753430,-4827.440360,-2986.505984,9969.794449,3114.737942,4693.709873,8184.515915,26599.760544,21968.277927,2101.801586,6147.355574,-0.006000,-0.014000,1.006000,192.000000,0.000000,0.000000,0.000000,0.000000,0.000000,0.000000,0.000000,0.000000,0.000000,1771415886.367339,0.000000
86.000000,13321.282067,13386.325644,8830.749551,10919.363608,8821.026542,31678.792140,-4777.864191,-2946.965748,9988.704024,3133.312241,4710.920717,8200.519764,26613.260998,22001.894951,2117.470159,6149.858969,-0.006000,-0.014000,1.006000,192.000000,0.000000,0.000000,0.000000,0.000000,0.000000,0.000000,0.000000,0.000000,0.000000,1771415886.367368,0.000000
88.000000,13287.888561,13350.696963,8756.698222,10863.864227,8707.390273,31630.422965,-4815.191605,-2974.570152,9986.960588,3138.900177,4713.379409,8206.800605,26632.684664,21999.637425,2121.225252,6149.791914,-0.006000,-0.014000,1.006000,192.000000,0.000000,0.000000,0.000000,0.000000,0.000000,0.000000,0.000000,0.000000,0.000000,1771415886.367393,0.000000
90.000000,13311.313189,13374.456868,8801.245248,10901.951599,8777.485344,31658.384998,-4788.280104,-2949.267977,9971.359071,3119.700029,4696.503841,8190.439128,26596.631300,21973.687050,2093.129110,6125.897899,-0.006000,-0.014000,1.006000,192.000000,0.000000,0.000000,0.000000,0.000000,0.000000,0.000000,0.000000,0.000000,0.000000,1771415886.367418,0.000000
92.000000,13304.630018,13371.685251,8783.676777,10908.388902,8765.191885,31656.909783,-4787.006055,-2945.602291,9992.012083,3154.926378,4735.239415,8223.430303,26612.881018,22025.587800,2127.819017,6156.653900,-0.004000,-0.014000,1.010000,192.000000,127.500000,112.000000,127.500000,72.000000,15.500000,72.000000,0.000000,0.000000,0.000000,1771415886.367443,0.000000
94.000000,13284.692262,13344.661992,8729.898480,10866.054698,8699.164832,31593.564939,-4820.108988,-2966.881152,9961.904283,3109.194709,4690.290057,8195.021235,26568.356343,21976.056335,2093.822014,6152.608234,-0.004000,-0.014000,1.010000,192.000000,0.000000,0.000000,0.000000,0.000000,0.000000,0.000000,0.000000,0.000000,0.000000,1771415886.367468,0.000000
96.000000,13323.181966,13388.851391,8812.666990,10925.845614,8813.829281,31654.942829,-4769.236418,-2923.138788,9984.568952,3129.311279,4724.912909,8210.622753,26615.764393,21997.201085,2124.890938,6146.908539,-0.004000,-0.014000,1.010000,192.000000,0.000000,0.000000,0.000000,0.000000,0.000000,0.000000,0.000000,0.000000,0.000000,1771415886.367493,0.000000
98.000000,13292.247151,13355.234367,8735.866396,10865.898236,8692.034625,31606.216026,-4814.677514,-2956.644053,9986.111222,3138.967233,4730.903176,8217.775311,26611.472858,22006.231190,2126.656726,6166.466316,-0.004000,-0.014000,1.010000,192.000000,0.000000,0.000000,0.000000,0.000000,0.000000,0.000000,0.000000,0.000000,0.000000,1771415886.367518,0.000000
100.000000,13303.914762,13369.673594,8788.013016,10890.261637,8765.527161,31641.062396,-4789.710616,-2942.473047,9957.545693,3102.645648,4696.973228,8182.146631,26570.859739,21974.335250,2103.232098,6156.855065,-0.004000,-0.014000,1.010000,192.000000,0.000000,0.000000,0.000000,0.000000,0.000000,0.000000,0.000000,0.000000,0.000000,1771415886.367543,0.000000
102.000000,13318.041065,13378.211961,8788.974141,10895.134317,8778.357062,31650.025445,-4784.681473,-2937.063925,10003.478527,3150.634843,4747.175246,8219.250526,26631.656484,22033.410911,2145.119267,6165.147563,-0.004000,-0.014000,1.010000,192.000000,0.000000,0.000000,127.500000,88.000000,15.500000,96.000000,0.000000,0.000000,0.000000,1771415886.367568,0.000000
104.000000,13277.383241,13337.151806,8734.346477,10855.124695,8699.678922,31601.298642,-4820.891299,-2973.966655,9967.626329,3111.139311,4703.365827,8190.461479,26585.656594,21983.365355,2109.959973,6142.549949,-0.004000,-0.014000,1.010000,192.000000,0.000000,0.000000,0.000000,0.000000,0.000000,0.000000,0.000000,0.000000,0.000000,1771415886.367593,0.000000
106.000000,13320.253887,13379.463658,8824.736932,10915.697922,8821.361818,31660.553117,-4770.197543,-2936.706297,9991.296827,3124.572709,4720.867243,8199.938619,26605.080259,21990.897893,2129.048363,6145.053344,-0.004000,-0.014000,1.010000,192.000000,0.000000,0.000000,0.000000,0.000000,0.000000,0.000000,0.000000,0.000000,0.000000,1771415886.367618,0.000000
108.000000,13284.804021,13348.260623,8747.757524,10861.941977,8705.378616,31612.474515,-4816.152730,-2975.196001,9988.726376,3136.463837,4726.365772,8206.375922,26613.596274,22008.511067,2137.072639,6145.969766,-0.004000,-0.014000,1.010000,192.000000,0.000000,0.000000,0.000000,0.000000,0.000000,0.000000,0.000000,0.000000,0.000000,1771415886.367643,0.000000
110.000000,13292.314207,13356.821341,8791.879868,10892.027425,8765.370699,31642.627018,-4799.523032,-2969.473954,9961.948986,3109.395875,4689.440690,8177.385709,26598.844123,21978.380916,2103.522671,6139.621870,-0.004000,-0.014000,1.010000,192.000000,0.000000,0.000000,0.000000,0.000000,0.000000,0.000000,0.000000,0.000000,0.000000,1771415886.367668,0.000000
112.000000,13299.064433,13365.605577,8791.924571,10901.169288,8767.941149,31647.946733,-4794.873869,-2965.696510,9984.993635,3143.638747,4726.768103,8205.481852,26617.239608,22027.264181,2148.024994,6164.275845,-0.004000,-0.014000,1.010000,192.000000,0.000000,0.000000,127.500000,88.000000,15.500000,64.000000,0.000000,0.000000,0.000000,1771415886.367693,0.000000
114.000000,13268.375488,13336.347143,8741.007297,10858.768029,8681.104622,31604.338480,-4828.088561,-2996.228992,9964.810010,3117.911889,4683.025740,8183.778308,26594.753754,21992.775439,2105.623735,6151.267129,-0.004000,-0.014000,1.010000,192.000000,0.000000,0.000000,0.000000,0.000000,0.000000,0.000000,0.000000,0.000000,0.000000,1771415886.367721,0.000000
116.000000,13310.307361,13378.636644,8817.807891,10923.610440,8813.002266,31659.234364,-4776.232514,-2954.163009,9971.314367,3129.758314,4704.036379,8192.249619,26588.763486,22025.878373,2118.230119,6156.653900,-0.004000,-0.014000,1.010000,192.000000,0.000000,0.000000,0.000000,0.000000,0.000000,0.000000,0.000000,0.000000,0.000000,1771415886.367746,0.000000
118.000000,13260.664136,13326.445320,8734.972326,10865.495904,8686.759613,31602.773857,-4820.846596,-2993.926763,9968.073364,3129.333631,4703.812862,8197.658741,26594.418477,22003.996015,2130.411819,6161.414821,-0.004000,-0.014000,1.010000,192.000000,0.000000,0.000000,0.000000,0.000000,0.000000,0.000000,0.000000,0.000000,0.000000,1771415886.367770,0.000000
120.000000,13288.045023,13351.993364,8775.406632,10890.596913,8763.157876,31628.098384,-4796.013808,-2966.501172,9938.412599,3084.116052,4669.458231,8165.651043,26562.723704,21950.575346,2101.578069,6154.597539,-0.004000,-0.014000,1.010000,192.000000,0.000000,0.000000,0.000000,0.000000,0.000000,0.000000,0.000000,0.000000,0.000000,1771415886.367795,0.000000
122.000000,13306.507564,13372.624024,8784.906123,10895.067262,8756.005318,31632.166401,-4786.648427,-2943.992966,9982.713757,3133.915738,4733.272461,8214.422550,26602.129829,22007.237018,2133.496360,6168.477973,-0.002000,-0.010000,1.002000,192.000000,127.500000,120.000000,127.500000,88.000000,15.500000,40.000000,0.000000,0.000000,0.000000,1771415886.367820,0.000000
124.000000,13285.921608,13351.009888,8733.497111,10845.893424,8696.124994,31588.356982,-4820.466616,-2968.736347,9973.393079,3111.251069,4708.998467,8195.490622,26575.464198,21969.417866,2102.338028,6137.811379,-0.002000,-0.010000,1.002000,192.000000,0.000000,0.000000,0.000000,0.000000,0.000000,0.000000,0.000000,0.000000,0.000000,1771415886.367845,0.000000
126.000000,13308.519221,13373.383984,8803.726292,10897.883582,8808.576621,31637.106137,-4776.724252,-2938.270919,9972.878989,3118.716552,4715.569879,8197.479927,26584.695469,21991.769611,2120.755866,6157.033879,-0.002000,-0.010000,1.002000,192.000000,0.000000,0.000000,0.000000,0.000000,0.000000,0.000000,0.000000,0.000000,0.000000,1771415886.367870,0.000000
128.000000,13280.154858,13341.823321,8734.614698,10842.451256,8706.116224,31590.972136,-4817.560889,-2967.931684,9974.108335,3117.911889,4733.831255,8201.793814,26609.394146,21994.742393,2131.283537,6162.443002,-0.002000,-0.010000,1.002000,192.000000,0.000000,0.000000,0.000000,0.000000,0.000000,0.000000,0.000000,0.000000,0.000000,1771415886.367895,0.000000
130.000000,13298.595047,13361.917539,8779.340539,10877.364680,8774.289045,31626.891390,-4795.142090,-2950.206751,9958.082134,3091.581534,4699.543679,8179.799697,26577.475855,21969.350811,2106.473101,6146.483856,-0.002000,-0.010000,1.002000,192.000000,0.000000,0.000000,0.000000,0.000000,0.000000,0.000000,0.000000,0.000000,0.000000,1771415886.367931,0.000000
132.000000,13309.122718,13373.898074,8790.650522,10892.072128,8768.634053,31626.690224,-4786.067281,-2940.014355,9987.564085,3136.374430,4746.795266,8218.669381,26622.738138,22007.482887,2144.336956,6161.772449,-0.002000,-0.013000,1.002000,192.000000,127.500000,120.000000,127.500000,64.000000,15.500000,40.000000,0.000000,0.000000,0.000000,1771415886.367955,0.000000
134.000000,13272.577616,13338.649373,8739.062695,10847.972136,8687.541924,31586.345325,-4823.037067,-2976.268885,9970.912036,3109.842910,4713.178243,8196.228230,26544.149404,21979.431448,2103.634429,6155.581016,-0.002000,-0.013000,1.002000,192.000000,0.000000,0.000000,0.000000,0.000000,0.000000,0.000000,0.000000,0.000000,0.000000,1771415886.367981,0.000000
136.000000,13305.792309,13369.427725,8805.782653,10906.064320,8816.533842,31653.624076,-4779.786441,-2946.898692,9973.124859,3117.062523,4711.345400,8195.803546,26599.022937,22005.247713,2123.482778,6161.414821,-0.002000,-0.013000,1.002000,192.000000,0.000000,0.000000,0.000000,0.000000,0.000000,0.000000,0.000000,0.000000,0.000000,1771415886.368005,0.000000
138.000000,13264.128657,13329.082826,8742.907195,10854.387087,8703.255201,31607.803000,-4825.696924,-2984.784899,9973.907170,3117.688372,4720.956650,8199.804509,26585.388373,21994.205951,2137.787895,6167.449792,-0.002000,-0.013000,1.002000,192.000000,0.000000,0.000000,0.000000,0.000000,0.000000,0.000000,0.000000,0.000000,0.000000,1771415886.368032,0.000000
140.000000,13285.295759,13347.612422,8784.950827,10881.790326,8777.865324,31637.933151,-4804.351008,-2973.631379,9938.926689,3083.445499,4683.271609,8165.092250,26559.035666,21956.207985,2105.087293,6156.609196,-0.002000,-0.013000,1.002000,192.000000,0.000000,0.000000,0.000000,0.000000,0.000000,0.000000,0.000000,0.000000,0.000000,1771415886.368056,0.000000
142.000000,13294.348215,13358.005984,8793.422138,10898.263562,8763.336690,31649.310189,-4794.493889,-2962.746079,9984.546600,3133.938090,4733.272461,8199.782157,26618.513658,22021.296265,2143.509942,6160.923083,0.001000,-0.013500,1.000000,192.000000,0.000000,16.000000,127.500000,72.000000,15.500000,24.000000,0.000000,0.000000,0.000000,1771415886.368081,0.000000
144.000000,13262.184055,13326.847652,8741.990774,10853.113038,8684.256218,31598.437619,-4827.574471,-2991.244553,9959.266777,3101.461005,4699.454272,8172.133049,26582.572053,21969.507273,2103.410912,6153.926987,0.001000,-0.013500,1.000000,192.000000,0.000000,0.000000,0.000000,0.000000,0.000000,0.000000,0.000000,0.000000,0.000000,1771415886.368106,0.000000
146.000000,13301.992512,13364.085658,8809.850670,10907.919515,8822.121778,31652.126509,-4778.825316,-2951.301986,9964.810010,3116.257860,4716.754522,8182.951293,26592.920910,21993.691861,2134.032802,6149.009603,0.001000,-0.013500,1.000000,192.000000,0.000000,0.000000,0.000000,0.000000,0.000000,0.000000,0.000000,0.000000,0.000000,1771415886.368133,0.000000
148.000000,13257.758410,13317.370512,8740.336745,10851.816637,8683.764480,31586.412381,-4821.561852,-2985.366045,9967.335757,3106.221927,4721.113112,8183.823011,26554.677076,21989.109753,2137.720840,6174.043557,0.001000,-0.013500,1.000000,192.000000,0.000000,0.000000,0.000000,0.000000,0.000000,0.000000,0.000000,0.000000,0.000000,1771415886.368158,0.000000
150.000000,13288.760279,13350.942832,8776.546571,10877.923474,8761.950882,31620.096459,-4794.315075,-2957.761640,9945.811027,3077.321121,4691.877030,8162.655909,26539.902573,21938.550107,2098.717046,6161.347766,0.001000,-0.013500,1.000000,192.000000,0.000000,0.000000,0.000000,0.000000,0.000000,0.000000,0.000000,0.000000,0.000000,1771415886.368183,0.000000
152.000000,13305.881716,13367.639585,8786.515449,10888.674663,8761.973233,31634.848611,-4782.803927,-2937.935643,9990.335702,3129.758314,4748.918682,8210.712160,26618.580713,22000.889123,2139.084296,6169.796725,0.002500,-0.012750,0.999000,192.000000,0.000000,16.000000,127.500000,80.000000,15.500000,24.000000,0.000000,0.000000,0.000000,1771415886.368209,0.000000
154.000000,13272.644672,13336.525957,8729.429094,10840.394895,8687.653683,31596.381259,-4820.243099,-2970.189210,9961.144323,3101.103377,4719.257917,8188.472174,26557.672209,21960.387762,2108.998848,6156.676251,0.002500,-0.012750,0.999000,192.000000,0.000000,0.000000,0.000000,0.000000,0.000000,0.000000,0.000000,0.000000,0.000000,1771415886.368238,0.000000
156.000000,13316.409387,13380.670652,8811.616458,10907.025445,8834.079961,31658.832033,-4771.940979,-2933.040611,9972.811934,3119.968250,4734.702973,8195.736491,26596.139562,21990.204989,2126.433209,6160.856028,0.002500,-0.012750,0.999000,192.000000,0.000000,0.000000,0.000000,0.000000,0.000000,0.000000,0.000000,0.000000,0.000000,1771415886.368263,0.000000
158.000000,13270.945939,13339.498739,8742.348402,10846.183997,8702.383483,31608.786477,-4819.237270,-2977.319417,9982.065556,3131.412343,4740.156798,8200.855041,26584.404896,22007.639349,2135.843293,6167.315682,0.002500,-0.012750,0.999000,192.000000,0.000000,0.000000,0.000000,0.000000,0.000000,0.000000,0.000000,0.000000,0.000000,1771415886.368288,0.000000
160.000000,13277.942035,13345.109027,8774.177286,10872.536704,8768.231722,31638.246076,-4803.434587,-2974.883077,9947.822684,3093.570840,4688.904248,8162.611206,26540.193145,21964.880462,2102.159214,6168.030938,0.002500,-0.012750,0.999000,192.000000,0.000000,0.000000,0.000000,0.000000,0.000000,0.000000,0.000000,0.000000,0.000000,1771415886.368313,0.000000
162.000000,13279.953692,13346.830111,8780.927513,10878.996358,8764.409574,31637.754338,-4796.684360,-2966.255303,9977.639911,3122.069314,4731.797246,8192.070805,26578.369925,21995.770573,2142.951148,6169.975539,0.002500,-0.012750,0.999000,192.000000,0.000000,0.000000,127.500000,56.000000,15.500000,40.000000,0.000000,0.000000,0.000000,1771415886.368337,0.000000
164.000000,13243.319183,13310.977913,8730.367867,10831.230680,8675.069651,31596.336555,-4836.224596,-3002.152205,9943.888777,3086.083005,4692.011141,8163.840552,26565.294154,21953.995163,2101.801586,6157.346804,0.002500,-0.012750,0.999000,192.000000,0.000000,0.000000,0.000000,0.000000,0.000000,0.000000,0.000000,0.000000,0.000000,1771415886.368362,0.000000
166.000000,13278.344366,13349.266452,8801.647580,10898.129451,8808.151938,31661.491890,-4792.258715,-2971.597370,9947.465056,3098.510575,4701.868260,8171.149572,26554.587669,21982.068954,2118.587746,6152.563531,0.002500,-0.012750,0.999000,192.000000,0.000000,0.000000,0.000000,0.000000,0.000000,0.000000,0.000000,0.000000,0.000000,1771415886.368387,0.000000
168.000000,13234.959630,13304.697073,8730.591384,10850.877863,8691.453480,31622.801020,-4838.616233,-3013.305725,9945.587509,3096.118938,4695.676827,8171.127221,26569.138654,21981.286643,2127.282575,6183.900676,0.002500,-0.012750,0.999000,192.000000,0.000000,0.000000,0.000000,0.000000,0.000000,0.000000,0.000000,0.000000,0.000000,1771415886.368412,0.000000
170.000000,13269.470724,13335.587184,8775.965425,10884.852515,8778.781745,31655.836899,-4814.141073,-2990.372835,9925.113311,3070.772060,4671.380481,8144.126313,26526.111546,21955.872709,2097.487700,6166.533371,0.002500,-0.012750,0.999000,192.000000,0.000000,0.000000,0.000000,0.000000,0.000000,0.000000,0.000000,0.000000,0.000000,1771415886.368436,0.000000
172.000000,13286.279236,13350.361687,8784.168516,10894.799041,8782.358024,31657.088596,-4803.278125,-2976.224181,9980.612693,3126.249090,4732.378391,8190.349721,26607.091916,22010.500373,2146.281558,6154.441077,0.002250,-0.011375,1.008500,192.000000,0.000000,8.000000,127.500000,88.000000,15.500000,104.000000,0.000000,0.000000,0.000000,1771415886.368460,0.000000
174.000000,13259.479494,13327.071169,8722.880032,10839.970212,8705.088044,31602.840913,-4838.124494,-3001.459301,9952.494198,3095.113110,4693.978094,8161.918302,26571.239718,21970.066067,2106.540156,6159.000833,0.002250,-0.011375,1.008500,192.000000,0.000000,0.000000,0.000000,0.000000,0.000000,0.000000,0.000000,0.000000,0.000000,1771415886.368485,0.000000
176.000000,13316.565849,13382.190571,8809.001304,10905.237306,8826.100388,31657.915611,-4779.428813,-2943.858855,9976.209399,3115.408494,4723.817673,8181.409023,26594.910216,21991.255521,2122.499302,6144.248682,0.002250,-0.011375,1.008500,192.000000,0.000000,0.000000,0.000000,0.000000,0.000000,0.000000,0.000000,0.000000,0.000000,1771415886.368510,0.000000
178.000000,13283.887599,13351.278109,8738.660364,10853.135389,8704.283381,31615.357890,-4818.834939,-2970.882114,9992.861449,3134.496884,4744.984775,8204.699541,26597.838294,22009.919227,2118.744209,6162.130077,0.002250,-0.011375,1.008500,192.000000,0.000000,0.000000,0.000000,0.000000,0.000000,0.000000,0.000000,0.000000,0.000000,1771415886.368537,0.000000
180.000000,13285.966311,13354.697925,8765.773030,10867.775782,8755.334765,31634.647445,-4803.591049,-2963.349576,9946.503931,3092.117976,4702.225888,8169.048508,26557.560451,21977.710364,2084.188412,6166.309853,0.002250,-0.011375,1.008500,192.000000,0.000000,0.000000,0.000000,0.000000,0.000000,0.000000,0.000000,0.000000,0.000000,1771415886.368562,0.000000
182.000000,13307.803966,13382.168219,8770.712766,10887.020634,8755.468876,31649.198431,-4788.011883,-2940.796666,9988.078176,3137.044983,4752.159685,8209.326352,26595.916044,22020.044568,2126.209691,6172.635397,0.002125,-0.009687,1.012250,192.000000,0.000000,8.000000,127.500000,96.000000,15.500000,96.000000,0.000000,0.000000,0.000000,1771415886.368587,0.000000
184.000000,13276.489172,13349.333507,8716.129806,10838.919680,8681.663416,31591.821503,-4826.590994,-2972.044405,9960.518475,3115.274383,4721.761313,8191.623770,26569.965669,21990.339099,2088.032912,6159.269054,0.002125,-0.009687,1.012250,192.000000,0.000000,0.000000,0.000000,0.000000,0.000000,0.000000,0.000000,0.000000,0.000000,1771415886.368611,0.000000
186.000000,13316.878774,13391.377138,8794.606780,10903.292704,8799.881792,31650.785405,-4781.485174,-2937.779181,9973.996577,3127.769009,4734.881787,8198.329294,26589.121114,21998.206913,2103.276801,6156.653900,0.002125,-0.009687,1.012250,192.000000,0.000000,0.000000,0.000000,0.000000,0.000000,0.000000,0.000000,0.000000,0.000000,1771415886.368636,0.000000
188.000000,13270.007166,13345.019620,8726.411608,10842.138331,8694.560372,31593.229663,-4831.530730,-2985.522507,9969.459172,3128.998355,4733.428923,8196.563506,26584.874282,22000.464439,2111.815168,6168.589731,0.002125,-0.009687,1.012250,192.000000,0.000000,0.000000,0.000000,0.000000,0.000000,0.000000,0.000000,0.000000,0.000000,1771415886.368661,0.000000
190.000000,13278.165552,13355.569643,8762.867303,10869.809791,8769.729289,31620.141163,-4815.884509,-2979.107556,9936.959736,3091.000389,4691.720568,8160.197217,26536.840384,21958.711381,2096.794796,6151.244778,0.002125,-0.009687,1.012250,192.000000,0.000000,0.000000,0.000000,0.000000,0.000000,0.000000,0.000000,0.000000,0.000000,1771415886.368686,0.000000
192.000000,13292.425965,13367.796048,8779.921684,10883.220838,8782.112155,31638.603704,-4806.899107,-2968.959864,9980.165658,3135.055677,4736.245243,8192.920171,26593.032669,22008.801640,2139.017241,6177.664540,0.002125,-0.009687,1.012250,192.000000,0.000000,0.000000,127.500000,72.000000,15.500000,72.000000,0.000000,0.000000,0.000000,1771415886.368711,0.000000
194.000000,13275.058660,13347.590071,8739.152102,10846.228700,8714.855756,31590.748619,-4836.492817,-2988.562344,9954.997594,3105.037284,4702.874089,8171.596607,26591.512751,21980.034945,2109.781159,6167.472144,0.002125,-0.009687,1.012250,192.000000,0.000000,0.000000,0.000000,0.000000,0.000000,0.000000,0.000000,0.000000,0.000000,1771415886.848465,0.000000
196.000000,13312.184907,13380.335376,8815.617420,10915.206184,8847.938043,31660.240192,-4791.744625,-2958.968634,9975.918827,3125.712648,4725.806978,8187.868677,26632.975237,22016.244771,2134.591595,6165.616949,0.002125,-0.009687,1.012250,192.000000,0.000000,0.000000,0.000000,0.000000,0.000000,0.000000,0.000000,0.000000,0.000000,1771415886.848521,0.000000
198.000000,13279.014919,13349.400562,8743.980079,10864.735945,8728.691486,31611.781610,-4834.972898,-2991.468071,9981.864391,3122.605756,4729.427961,8186.415814,26603.672100,22014.434280,2141.006546,6191.477918,0.002125,-0.009687,1.012250,192.000000,0.000000,0.000000,0.000000,0.000000,0.000000,0.000000,0.000000,0.000000,0.000000,1771415886.848561,0.000000
200.000000,13296.270465,13369.852408,8788.996493,10893.860268,8786.515449,31639.408367,-4810.229517,-2972.044405,9956.673975,3096.610677,4696.973228,8162.588854,26581.901500,21982.963024,2104.752017,6172.456583,0.002125,-0.009687,1.012250,192.000000,0.000000,0.000000,0.000000,0.000000,0.000000,0.000000,0.000000,0.000000,0.000000,1771415886.848600,0.000000
202.000000,13316.208221,13385.520981,8792.528068,10902.823317,8780.301664,31646.896201,-4797.019636,-2954.922969,9999.209344,3149.383145,4751.846761,8207.381750,26592.049192,22030.035797,2141.945319,6171.786031,0.002125,-0.009687,1.012250,192.000000,0.000000,0.000000,0.000000,0.000000,0.000000,0.000000,0.000000,0.000000,0.000000,1771415886.848640,0.000000
204.000000,13279.707823,13348.528844,8726.590422,10851.235491,8689.419471,31597.364735,-4831.553081,-2982.885001,9966.262873,3112.748636,4715.346362,8181.409023,26561.047323,21981.264291,2102.472139,6159.269054,0.002125,-0.009687,1.012250,192.000000,0.000000,0.000000,127.500000,80.000000,15.500000,72.000000,0.000000,0.000000,0.000000,1771415886.848681,0.000000
206.000000,13327.495852,13395.802783,8799.814737,10910.534669,8827.441493,31658.139128,-4781.105194,-2936.616890,9973.437783,3118.649497,4737.072258,8191.087328,26606.667233,22001.872599,2116.441979,6154.195208,0.002125,-0.009687,1.012250,192.000000,0.000000,0.000000,0.000000,0.000000,0.000000,0.000000,0.000000,0.000000,0.000000,1771415886.848711,0.000000
208.000000,13303.579486,13374.814495,8733.273594,10862.433715,8718.119111,31595.017802,-4820.399561,-2961.740251,10003.679693,3135.435657,4750.013918,8207.113529,26618.044271,22020.111623,2127.304927,6162.890036,0.002125,-0.009687,1.012250,192.000000,0.000000,0.000000,0.000000,0.000000,0.000000,0.000000,0.000000,0.000000,0.000000,1771415886.848723,0.000000
210.000000,13311.469652,13385.141001,8769.729289,10882.773803,8774.043175,31617.369547,-4807.837881,-2956.442887,9970.442649,3110.245241,4722.320106,8183.510087,26552.039570,21989.668547,2091.452729,6153.077621,0.002125,-0.009687,1.012250,192.000000,0.000000,0.000000,0.000000,0.000000,0.000000,0.000000,0.000000,0.000000,0.000000,1771415886.848743,0.000000
212.000000,13329.015771,13399.580228,8775.920722,10898.822355,8777.038309,31641.978817,-4797.779596,-2946.116381,10010.876955,3154.568750,4761.614473,8217.037704,26605.884922,22042.418664,2135.552720,6161.705394,0.002125,-0.009687,1.012250,192.000000,0.000000,0.000000,0.000000,0.000000,0.000000,0.000000,0.000000,0.000000,0.000000,1771415886.848755,0.000000
214.000000,13290.280198,13362.051649,8715.772178,10855.504674,8701.511765,31598.929357,-4840.270262,-2986.416577,9982.199667,3126.405552,4718.654420,8189.478003,26610.265864,22007.326425,2096.303057,6165.684005,-0.002000,-0.012000,1.008000,192.000000,127.500000,120.000000,127.500000,80.000000,15.500000,64.000000,0.000000,0.000000,0.000000,1771415886.848767,0.000000
216.000000,13338.850539,13410.554935,8814.164557,10917.016675,8842.663031,31648.885506,-4790.358816,-2945.311719,9975.605902,3132.909910,4731.238452,8190.170907,26579.643974,22021.408024,2128.981308,6163.113554,-0.002000,-0.012000,1.008000,192.000000,0.000000,0.000000,0.000000,0.000000,0.000000,0.000000,0.000000,0.000000,0.000000,1771415886.848779,0.000000
218.000000,13307.088710,13377.608463,8743.711858,10868.133410,8733.340649,31605.478419,-4833.721201,-2980.023978,10006.518365,3153.138239,4746.459990,8209.058131,26638.652580,22049.593574,2142.325299,6161.392470,-0.002000,-0.012000,1.008000,192.000000,0.000000,0.000000,0.000000,0.000000,0.000000,0.000000,0.000000,0.000000,0.000000,1771415886.848791,0.000000
220.000000,13312.967219,13382.816420,8770.668062,10894.955503,8775.898370,31628.053680,-4817.672648,-2975.799498,9971.940216,3116.168453,4701.577687,8176.245770,26573.296079,21995.122373,2106.651915,6164.633473,-0.002000,-0.012000,1.008000,192.000000,0.000000,0.000000,0.000000,0.000000,0.000000,0.000000,0.000000,0.000000,0.000000,1771415886.848808,0.000000
222.000000,13316.387035,13389.387833,8780.346367,10908.232440,8784.816716,31642.090576,-4804.328657,-2966.545876,10014.676751,3153.808791,4736.759333,8204.543078,26638.272600,22045.972591,2145.365136,6188.438080,-0.002000,-0.012000,1.008000,192.000000,0.000000,0.000000,0.000000,0.000000,0.000000,0.000000,0.000000,0.000000,0.000000,1771415886.848822,0.000000
224.000000,13288.492058,13359.727068,8727.976230,10873.229608,8704.350436,31596.515369,-4838.727991,-2997.592449,9971.023795,3119.856491,4707.791472,8178.413889,26593.546759,22013.741376,2121.225252,6171.361348,-0.002000,-0.016000,1.004000,192.000000,127.500000,120.000000,127.500000,64.000000,15.500000,48.000000,0.000000,0.000000,0.000000,1771415886.848837,0.000000
226.000000,13340.616326,13408.498574,8817.584374,10940.329545,8834.236423,31658.832033,-4785.150860,-2951.234931,9984.546600,3135.346250,4729.539720,8187.846325,26622.581675,22030.236963,2134.613947,6168.209752,-0.002000,-0.016000,1.004000,192.000000,0.000000,0.000000,0.000000,0.000000,0.000000,0.000000,0.000000,0.000000,0.000000,1771415886.848852,0.000000
228.000000,13298.952675,13368.891283,8749.500960,10885.478364,8728.780893,31601.566863,-4828.200320,-2981.923876,10003.590286,3149.181980,4740.827351,8204.543078,26616.479649,22046.576088,2143.845218,6165.706356,-0.002000,-0.016000,1.004000,192.000000,0.000000,0.000000,0.000000,0.000000,0.000000,0.000000,0.000000,0.000000,0.000000,1771415886.848867,0.000000
230.000000,13320.432701,13387.554990,8779.653463,10907.606591,8791.857516,31624.857381,-4808.530785,-2959.505076,9967.335757,3111.184014,4704.103435,8174.658796,26589.523445,21994.563579,2107.210709,6153.524656,-0.002000,-0.016000,1.004000,192.000000,0.000000,0.000000,0.000000,0.000000,0.000000,0.000000,0.000000,0.000000,0.000000,1771415886.848883,0.000000
232.000000,13341.264527,13405.682255,8793.377434,10918.424835,8802.742815,31640.369492,-4790.783500,-2937.443905,10022.522214,3159.195561,4768.834087,8223.542061,26623.118117,22047.447806,2148.650843,6158.822019,-0.002000,-0.016000,1.004000,192.000000,0.000000,0.000000,0.000000,0.000000,0.000000,0.000000,0.000000,0.000000,0.000000,1771415886.848894,0.000000
234.000000,13301.701939,13372.065231,8723.774102,10863.283081,8701.534116,31591.843854,-4827.060381,-2971.351501,9994.224905,3122.404590,4724.175301,8198.441052,26591.177474,21995.547056,2101.086331,6161.548932,-0.002000,-0.016000,1.004000,192.000000,0.000000,0.000000,127.500000,80.000000,15.500000,48.000000,0.000000,0.000000,0.000000,1771415886.848906,0.000000
236.000000,13352.909786,13421.172013,8804.799176,10927.454940,8832.515339,31647.477346,-4776.187810,-2923.786989,9989.463984,3136.642651,4751.980871,8209.169890,26614.892675,22018.658759,2117.268994,6152.049440,-0.002000,-0.016000,1.004000,192.000000,0.000000,0.000000,0.000000,0.000000,0.000000,0.000000,0.000000,0.000000,0.000000,1771415886.848917,0.000000
238.000000,13310.441471,13376.714394,8739.710896,10873.006090,8713.849928,31596.783590,-4817.762055,-2955.817039,10009.938182,3147.259730,4765.973063,8223.899689,26616.099669,22026.258353,2130.836502,6153.435249,-0.002000,-0.016000,1.004000,192.000000,0.000000,0.000000,0.000000,0.000000,0.000000,0.000000,0.000000,0.000000,0.000000,1771415886.848930,0.000000
240.000000,13309.480346,13373.495742,8763.940187,10888.585256,8773.394975,31615.134372,-4808.284915,-2957.158143,9973.236617,3097.616505,4714.876975,8181.386671,26575.978288,21979.051468,2096.168947,6151.445943,-0.002000,-0.016000,1.004000,192.000000,0.000000,0.000000,0.000000,0.000000,0.000000,0.000000,0.000000,0.000000,0.000000,1771415886.848942,0.000000
242.000000,13320.410349,13388.493763,8780.681644,10900.901067,8784.414385,31631.607608,-4797.913706,-2946.943396,10000.461042,3140.263634,4754.417211,8213.126148,26645.156937,22018.479945,2152.651805,6158.732612,-0.002000,-0.016000,1.004000,192.000000,0.000000,0.000000,0.000000,0.000000,0.000000,0.000000,0.000000,0.000000,0.000000,1771415886.848957,0.000000
244.000000,13289.944922,13357.290728,8720.689561,10854.297680,8683.608017,31588.714610,-4836.358707,-2985.164879,9970.800277,3106.870128,4717.156853,8184.135936,26587.310623,21986.986338,2111.546947,6167.829772,-0.002000,-0.016000,1.004000,192.000000,0.000000,0.000000,127.500000,88.000000,15.500000,48.000000,0.000000,0.000000,0.000000,1771415886.848969,0.000000
246.000000,13327.607611,13397.255647,8805.961467,10927.656105,8820.311286,31652.908820,-4788.660084,-2952.732498,9982.177315,3120.996430,4733.585386,8189.500354,26586.617719,22011.640312,2123.482778,6169.729670,-0.002000,-0.016000,1.004000,192.000000,0.000000,0.000000,0.000000,0.000000,0.000000,0.000000,0.000000,0.000000,0.000000,1771415886.848980,0.000000
248.000000,13295.354044,13364.957376,8739.085047,10881.767974,8705.199803,31619.045927,-4827.820340,-2985.164879,9997.600019,3140.353041,4734.278290,8201.816166,26601.593387,22028.582934,2133.876340,6179.385624,-0.002000,-0.016000,1.004000,192.000000,0.000000,0.000000,0.000000,0.000000,0.000000,0.000000,0.000000,0.000000,0.000000,1771415886.848991,0.000000
250.000000,13304.182983,13370.992347,8767.762335,10903.426814,8776.255998,31647.790271,-4815.012791,-2980.962751,9963.424201,3102.086854,4699.051940,8171.998939,26590.886902,21992.194294,2106.003714,6165.885170,-0.002000,-0.016000,1.004000,192.000000,0.000000,0.000000,0.000000,0.000000,0.000000,0.000000,0.000000,0.000000,0.000000,1771415886.849002,0.000000
252.000000,13315.627076,13385.588036,8785.666083,10923.901012,8794.562077,31654.585201,-4801.065302,-2964.154239,9988.927542,3146.097439,4740.514426,8206.778253,26651.862461,22039.311771,2151.623625,6187.946342,-0.002000,-0.016000,1.004000,192.000000,0.000000,0.000000,0.000000,0.000000,0.000000,0.000000,0.000000,0.000000,0.000000,1771415886.849013,0.000000
254.000000,13286.346291,13353.379172,8733.340649,10875.844762,8708.261992,31605.858398,-4836.336355,-2987.444757,9973.728356,3118.046000,4711.948897,8189.053320,26589.232873,22003.951312,2119.884148,6168.545028,0.004000,-0.012000,1.012000,192.000000,0.000000,16.000000,127.500000,80.000000,15.500000,80.000000,0.000000,0.000000,0.000000,1771415886.849025,0.000000
0.000000,13332.726161,13400.675464,8808.576621,10929.913632,8837.924461,31678.456864,-4784.279142,-2941.444867,9990.402757,3132.708744,4735.507636,8203.671360,26618.156030,22023.710254,2136.022107,6155.223388,0.004000,-0.012000,1.012000,192.000000,0.000000,0.000000,0.000000,0.000000,0.000000,0.000000,0.000000,0.000000,0.000000,1771415886.849036,0.000000
2.000000,13298.058605,13363.906844,8744.628280,10878.594026,8715.794529,31617.950692,-4821.606555,-2969.205733,10009.245278,3138.743715,4744.068354,8210.980381,26657.897432,22031.712178,2138.190226,6166.131039,0.004000,-0.012000,1.012000,192.000000,0.000000,0.000000,0.000000,0.000000,0.000000,0.000000,0.000000,0.000000,0.000000,1771415886.849048,0.000000
4.000000,13314.822413,13384.336339,8773.305568,10898.308265,8777.194771,31635.340349,-4803.613401,-2951.503152,9967.268701,3101.438654,4714.564051,8185.991131,26583.421419,21985.756992,2100.326371,6144.449847,0.004000,-0.012000,1.012000,192.000000,0.000000,0.000000,0.000000,0.000000,0.000000,0.000000,0.000000,0.000000,0.000000,1771415886.849059,0.000000
6.000000,13329.261640,13396.518039,8787.454222,10907.003094,8799.658275,31647.723216,-4787.386034,-2934.985213,10008.686484,3147.952634,4770.801040,8224.637297,26689.748667,22037.166004,2142.951148,6152.451772,0.004000,-0.012000,1.012000,192.000000,0.000000,0.000000,0.000000,0.000000,0.000000,0.000000,0.000000,0.000000,0.000000,1771415886.849070,0.000000
8.000000,13304.853535,13373.786315,8730.971364,10866.009994,8697.130823,31607.803000,-4819.952526,-2959.952111,9999.790490,3122.695163,4745.476514,8207.404102,26613.149239,22004.063070,2104.617906,6137.453751,-0.006000,-0.012000,1.006000,192.000000,127.500000,104.000000,127.500000,80.000000,15.500000,56.000000,0.000000,0.000000,0.000000,1771415886.849082,0.000000
10.000000,13329.865137,13397.590923,8798.294818,10921.710541,8818.836071,31661.290724,-4778.713558,-2934.381716,9989.084004,3127.366677,4755.937130,8207.381750,26621.553495,22008.913399,2116.285517,6154.418725,-0.006000,-0.012000,1.006000,192.000000,0.000000,0.000000,0.000000,0.000000,0.000000,0.000000,0.000000,0.000000,0.000000,1771415886.849093,0.000000
12.000000,13295.868134,13366.521998,8726.433960,10869.586273,8705.624486,31621.906951,-4820.980706,-2965.964730,9992.146193,3132.932262,4755.490095,8215.026047,26613.372757,22023.665550,2130.858854,6172.009548,-0.006000,-0.012000,1.006000,192.000000,0.000000,0.000000,0.000000,0.000000,0.000000,0.000000,0.000000,0.000000,0.000000,1771415886.849105,0.000000
14.000000,13303.311265,13372.847542,8755.334765,10904.231477,8756.877036,31645.689207,-4807.144977,-2960.779126,9960.965510,3090.508651,4712.619449,8177.229247,26571.820864,21978.447971,2096.481871,6166.511019,-0.006000,-0.012000,1.006000,192.000000,0.000000,0.000000,0.000000,0.000000,0.000000,0.000000,0.000000,0.000000,0.000000,1771415886.849116,0.000000
16.000000,13322.153785,13390.572475,8768.611702,10922.582259,8779.429946,31663.503547,-4795.052683,-2948.530370,10007.904173,3147.192675,4758.842857,8216.702427,26652.577716,22031.198088,2138.458447,6178.223333,-0.006000,-0.012000,1.006000,192.000000,0.000000,0.000000,0.000000,0.000000,0.000000,0.000000,0.000000,0.000000,0.000000,1771415886.849128,0.000000
18.000000,13282.367680,13350.786370,8721.158948,10872.044965,8684.770308,31609.837009,-4834.503512,-2985.388396,9972.454306,3109.082950,4722.051885,8188.248657,26585.567187,21985.332308,2112.865700,6167.628606,-0.006000,-0.012000,1.006000,192.000000,0.000000,0.000000,127.500000,88.000000,15.500000,88.000000,0.000000,0.000000,0.000000,1771415886.849141,0.000000
20.000000,13320.030370,13390.974807,8801.915801,10937.513225,8803.234554,31664.688190,-4785.530840,-2949.983233,9975.784716,3115.252032,4737.988679,8191.087328,26596.161913,21992.931902,2121.337011,6160.319586,-0.006000,-0.012000,1.006000,192.000000,0.000000,0.000000,0.000000,0.000000,0.000000,0.000000,0.000000,0.000000,0.000000,1771415886.849152,0.000000
22.000000,13280.668948,13351.032239,8744.427114,10886.819468,8703.322256,31608.473552,-4823.953488,-2980.292199,9986.357091,3122.315183,4741.497903,8200.408006,26629.443661,21994.407117,2132.848159,6167.941531,-0.006000,-0.012000,1.006000,192.000000,0.000000,0.000000,0.000000,0.000000,0.000000,0.000000,0.000000,0.000000,0.000000,1771415886.849164,0.000000
24.000000,13297.477460,13368.824228,8774.825487,10905.796099,8769.192847,31627.807811,-4805.848575,-2965.808268,9957.255120,3088.720511,4710.473682,8170.903703,26576.939413,21956.275041,2107.233060,6144.114571,-0.006000,-0.012000,1.006000,192.000000,0.000000,0.000000,0.000000,0.000000,0.000000,0.000000,0.000000,0.000000,0.000000,1771415886.849176,0.000000
26.000000,13317.974009,13386.057423,8785.643731,10917.486062,8793.757414,31644.862192,-4791.185831,-2946.071678,10004.394949,3137.715535,4760.340424,8210.712160,26661.540766,22020.849230,2149.299043,6153.301138,-0.006000,-0.012000,1.006000,192.000000,0.000000,0.000000,0.000000,0.000000,0.000000,0.000000,0.000000,0.000000,0.000000,1771415886.849187,0.000000
28.000000,13292.336558,13360.151751,8734.614698,10874.235436,8707.949067,31598.705840,-4828.937927,-2973.206696,9999.723434,3110.714628,4726.633993,8190.617942,26615.339710,21987.232207,2118.230119,6147.266167,-0.004000,-0.009000,1.010000,192.000000,127.500000,120.000000,127.500000,104.000000,15.500000,88.000000,0.000000,0.000000,0.000000,1771415886.849199,0.000000
30.000000,13349.221748,13415.695836,8816.511490,10940.396600,8848.630947,31671.371361,-4772.857401,-2920.434227,10006.294847,3135.100381,4756.451220,8205.481852,26629.913048,22007.415832,2130.188302,6142.035859,-0.004000,-0.009000,1.010000,192.000000,0.000000,0.000000,0.000000,0.000000,0.000000,0.000000,0.000000,0.000000,0.000000,1771415886.849210,0.000000
32.000000,13313.168384,13380.000100,8743.711858,10889.859306,8724.422303,31629.752413,-4813.738741,-2952.374870,10028.154853,3152.713555,4777.752433,8226.537195,26643.525260,22019.150498,2140.335994,6154.955167,-0.004000,-0.009000,1.010000,192.000000,0.000000,0.000000,0.000000,0.000000,0.000000,0.000000,0.000000,0.000000,0.000000,1771415886.849222,0.000000
34.000000,13321.483233,13391.645359,8769.058736,10909.774710,8781.016920,31647.745567,-4799.098349,-2939.612024,9992.995559,3118.090703,4737.474589,8197.859907,26603.694451,21991.143762,2097.174775,6161.437173,-0.004000,-0.009000,1.010000,192.000000,0.000000,0.000000,0.000000,0.000000,0.000000,0.000000,0.000000,0.000000,0.000000,1771415886.849233,0.000000
36.000000,13331.899146,13399.982560,8775.853667,10918.424835,8791.812812,31661.246021,-4789.531802,-2933.085314,10028.087798,3159.799058,4781.395767,8230.918137,26641.781824,22035.690789,2148.449677,6168.813249,-0.004000,-0.009000,1.010000,192.000000,0.000000,0.000000,0.000000,0.000000,0.000000,0.000000,0.000000,0.000000,0.000000,1771415886.849245,0.000000
38.000000,13296.650445,13368.399545,8725.361076,10871.977910,8690.537058,31607.534779,-4829.921404,-2967.037614,10001.958609,3128.528968,4732.490150,8205.057169,26629.913048,21998.430431,2108.730627,6161.683042,-0.004000,-0.009500,1.010000,192.000000,127.500000,112.000000,127.500000,88.000000,15.500000,72.000000,0.000000,0.000000,0.000000,1771415886.849257,0.000000
40.000000,13338.582318,13411.873688,8800.239420,10938.921385,8828.492025,31676.288745,-4782.155726,-2932.303003,10000.595152,3136.888520,4748.337537,8209.482814,26595.424306,22014.926018,2124.510959,6156.698603,-0.004000,-0.009500,1.010000,192.000000,0.000000,0.000000,0.000000,0.000000,0.000000,0.000000,0.000000,0.000000,0.000000,1771415886.849268,0.000000
42.000000,13296.181058,13371.104106,8742.013126,10888.987588,8724.511710,31621.437564,-4824.355820,-2971.329149,10001.623333,3147.080916,4757.054717,8223.340896,26608.343614,22016.200068,2138.167875,6167.807420,-0.004000,-0.009500,1.010000,192.000000,0.000000,0.000000,0.000000,0.000000,0.000000,0.000000,0.000000,0.000000,0.000000,1771415886.849280,0.000000
44.000000,13307.245172,13383.174048,8772.411498,10911.741663,8784.190867,31633.865134,-4809.313096,-2961.874361,9976.768193,3103.718532,4713.714685,8185.834668,26581.298003,21974.156436,2103.477967,6161.146600,-0.004000,-0.009500,1.010000,192.000000,0.000000,0.000000,0.000000,0.000000,0.000000,0.000000,0.000000,0.000000,0.000000,1771415886.849291,0.000000
46.000000,13317.504623,13395.467507,8795.500850,10923.856309,8800.954676,31649.153727,-4797.399616,-2950.229102,10011.189879,3149.584311,4767.917665,8225.866643,26633.846955,22011.215629,2152.316529,6164.432307,-0.004000,-0.009500,1.010000,192.000000,0.000000,0.000000,0.000000,0.000000,0.000000,0.000000,0.000000,0.000000,0.000000,1771415886.849302,0.000000
48.000000,13286.860381,13361.939891,8732.647745,10877.677605,8707.591439,31607.355965,-4837.073962,-2983.019112,9971.850809,3117.666020,4729.830292,8197.256410,26585.835407,21976.793942,2122.365191,6166.399260,-0.004000,-0.009500,1.010000,192.000000,0.000000,0.000000,127.500000,104.000000,15.500000,56.000000,0.000000,0.000000,0.000000,1771415886.849314,0.000000
50.000000,13324.835995,13399.356711,8810.700036,10936.060361,8840.293746,31681.384943,-4790.537630,-2949.938530,9994.940161,3129.825369,4738.279252,8202.620828,26630.896524,21994.943559,2130.724744,6160.833676,-0.004000,-0.009500,1.010000,192.000000,0.000000,0.000000,0.000000,0.000000,0.000000,0.000000,0.000000,0.000000,0.000000,1771415886.849326,0.000000
52.000000,13292.984759,13375.574455,8751.400858,10893.256771,8735.866396,31630.020634,-4829.787294,-2978.861687,10002.383292,3140.889483,4751.869112,8211.226250,26620.972350,22006.588817,2144.292253,6184.861801,-0.004000,-0.009500,1.010000,192.000000,0.000000,0.000000,0.000000,0.000000,0.000000,0.000000,0.000000,0.000000,0.000000,1771415886.849338,0.000000
54.000000,13324.478367,13401.837754,8767.672928,10917.396655,8781.307492,31656.283934,-4812.554099,-2959.572132,9975.963530,3122.002259,4718.319144,8191.824936,26586.774181,21980.861960,2106.674267,6160.878379,-0.004000,-0.009500,1.010000,192.000000,0.000000,0.000000,0.000000,0.000000,0.000000,0.000000,0.000000,0.000000,0.000000,1771415886.849356,0.000000
56.000000,13325.886527,13403.156507,8791.254019,10930.830053,8787.878905,31672.310134,-4792.929267,-2938.606195,10017.202499,3164.872904,4773.326787,8233.332125,26646.028655,22030.728701,2143.129962,6174.624702,-0.004000,-0.009500,1.010000,192.000000,0.000000,0.000000,0.000000,0.000000,0.000000,0.000000,0.000000,0.000000,0.000000,1771415886.849370,0.000000
58.000000,13287.463878,13362.431629,8716.979172,10873.453125,8687.005483,31607.579483,-4832.603613,-2971.552667,9988.435803,3117.353096,4739.642708,8202.933753,26560.421474,21985.667585,2103.187395,6167.338034,0.000000,-0.007750,1.008000,192.000000,0.000000,16.000000,127.500000,104.000000,15.500000,56.000000,0.000000,0.000000,0.000000,1771415887.329233,0.000000
60.000000,13342.806797,13421.395531,8800.954676,10937.937908,8818.545499,31676.244041,-4775.405499,-2921.931794,9988.078176,3131.032363,4758.999319,8212.433244,26610.824658,22007.371128,2110.876395,6160.297234,0.000000,-0.007750,1.008000,192.000000,0.000000,0.000000,0.000000,0.000000,0.000000,0.000000,0.000000,0.000000,0.000000,1771415887.329291,0.000000
62.000000,13307.200468,13381.385908,8728.490320,10888.764070,8699.254239,31630.735890,-4816.465654,-2957.426364,10008.954705,3147.527951,4778.691206,8229.018239,26622.134640,22015.574219,2126.969651,6181.307874,0.000000,-0.007750,1.008000,192.000000,0.000000,0.000000,0.000000,0.000000,0.000000,0.000000,0.000000,0.000000,0.000000,1771415887.329333,0.000000
64.000000,13317.571678,13389.231371,8759.939225,10909.931172,8760.833294,31653.065282,-4802.875793,-2949.133867,9980.120955,3114.156796,4733.987717,8195.267105,26567.059942,21969.954308,2093.956124,6164.029975,0.000000,-0.007750,1.008000,192.000000,0.000000,0.000000,0.000000,0.000000,0.000000,0.000000,0.000000,0.000000,0.000000,1771415887.329369,0.000000
66.000000,13330.625097,13407.090414,8781.240437,10926.627925,8789.845859,31675.752303,-4787.810718,-2934.672288,10005.289019,3150.679547,4779.048834,8225.307849,26622.514620,22016.155364,2139.777200,6172.411880,0.000000,-0.007750,1.008000,192.000000,0.000000,0.000000,0.000000,0.000000,0.000000,0.000000,0.000000,0.000000,0.000000,1771415887.329407,0.000000
68.000000,13281.585369,13360.308213,8709.468986,10867.172285,8688.726567,31630.758242,-4835.464637,-2984.315513,9996.102452,3131.904081,4743.733077,8207.582916,26594.865512,21998.966873,2111.837520,6151.267129,0.000000,-0.007750,1.008000,192.000000,0.000000,0.000000,127.500000,104.000000,15.500000,40.000000,0.000000,0.000000,0.000000,1771415887.329445,0.000000
70.000000,13311.112024,13390.483068,8792.751586,10928.796044,8816.265621,31691.867911,-4791.431700,-2958.834524,9966.911074,3112.435712,4738.279252,8186.862849,26584.114323,21981.711326,2119.593575,6176.166973,0.000000,-0.007750,1.008000,192.000000,0.000000,0.000000,0.000000,0.000000,0.000000,0.000000,0.000000,0.000000,0.000000,1771415887.329483,0.000000
72.000000,13264.083953,13341.957431,8719.393160,10878.526971,8705.289210,31639.028387,-4834.928195,-3003.806234,9975.941178,3121.354058,4742.168455,8191.601418,26609.997643,21994.965910,2135.083334,6184.057138,0.000000,-0.007750,1.008000,192.000000,0.000000,0.000000,0.000000,0.000000,0.000000,0.000000,0.000000,0.000000,0.000000,1771415887.329494,0.000000
74.000000,13282.613550,13358.922405,8751.914948,10893.927323,8770.936283,31664.799948,-4820.265451,-2989.121138,9941.184216,3083.713720,4694.179260,8157.984395,26582.415591,21955.157453,2104.997886,6172.501287,0.000000,-0.007750,1.008000,192.000000,0.000000,0.000000,0.000000,0.000000,0.000000,0.000000,0.000000,0.000000,0.000000,1771415887.329506,0.000000
76.000000,13296.292817,13375.596806,8782.112155,10928.952507,8798.786557,31687.062286,-4800.439453,-2971.686777,9991.185068,3137.804942,4753.679604,8203.045512,26609.304739,22013.584913,2148.382622,6182.783089,0.000000,-0.007750,1.008000,192.000000,0.000000,0.000000,0.000000,0.000000,0.000000,0.000000,0.000000,0.000000,0.000000,1771415887.329518,0.000000
78.000000,13262.206407,13341.219824,8721.494224,10875.710651,8704.439843,31631.451146,-4840.627890,-3002.956868,9964.675899,3107.451273,4713.312353,8177.385709,26572.714933,21977.263329,2114.564432,6177.463374,-0.002000,-0.008875,1.005000,192.000000,127.500000,112.000000,127.500000,88.000000,15.500000,40.000000,0.000000,0.000000,0.000000,1771415887.329530,0.000000
80.000000,13318.510451,13396.361577,8810.834147,10941.603594,8835.264604,31695.690059,-4782.133374,-2945.870512,9982.601998,3119.320049,4740.089743,8190.260314,26591.982137,21997.111678,2123.460427,6171.249589,-0.002000,-0.008875,1.005000,192.000000,0.000000,0.000000,0.000000,0.000000,0.000000,0.000000,0.000000,0.000000,0.000000,1771415887.329541,0.000000
82.000000,13281.026576,13360.934062,8732.133655,10892.385053,8723.394123,31644.593971,-4817.426779,-2972.469088,10001.869202,3138.117866,4763.871999,8214.958991,26638.138490,22010.858001,2135.239796,6175.071737,-0.002000,-0.008875,1.005000,192.000000,0.000000,0.000000,0.000000,0.000000,0.000000,0.000000,0.000000,0.000000,0.000000,1771415887.329559,0.000000
84.000000,13301.389015,13377.876684,8761.861475,10905.259658,8751.043230,31654.518146,-4800.193584,-2954.766507,9964.787658,3100.902212,4725.315240,8181.140802,26579.778085,21969.753143,2090.983342,6157.346804,-0.002000,-0.008875,1.005000,192.000000,0.000000,0.000000,0.000000,0.000000,0.000000,0.000000,0.000000,0.000000,0.000000,1771415887.329571,0.000000
86.000000,13303.735948,13385.833905,8776.345405,10922.537556,8772.411498,31658.496756,-4785.486136,-2937.846236,9988.569914,3144.421058,4777.819488,8222.066846,26592.205655,22022.346797,2126.366154,6158.285577,-0.002000,-0.008875,1.005000,192.000000,0.000000,0.000000,0.000000,0.000000,0.000000,0.000000,0.000000,0.000000,0.000000,1771415887.329583,0.000000
88.000000,13269.157799,13348.975879,8703.612829,10870.256826,8670.040509,31617.146029,-4829.362611,-2974.145469,9962.261911,3107.227755,4739.933281,8195.781195,26564.578898,21974.245843,2088.859926,6147.489685,-0.002000,-0.008875,1.005000,192.000000,0.000000,0.000000,0.000000,0.000000,0.000000,0.000000,0.000000,0.000000,0.000000,1771415887.329694,0.000000
90.000000,13297.812736,13379.865990,8776.390109,10928.080789,8799.233591,31669.225594,-4785.419081,-2944.417649,9964.430030,3104.791415,4737.228720,8189.701520,26575.754771,21980.191407,2101.019275,6159.581978,-0.004000,-0.006000,1.002000,192.000000,127.500000,112.000000,127.500000,104.000000,15.500000,40.000000,0.000000,0.000000,0.000000,1771415887.329706,0.000000
92.000000,13276.533875,13355.726106,8710.877146,10884.696053,8710.385407,31630.087689,-4820.265451,-2969.742175,9970.062670,3118.001296,4756.294758,8203.760767,26599.045288,22000.598550,2123.259261,6158.263225,-0.004000,-0.006000,1.002000,192.000000,0.000000,0.000000,0.000000,0.000000,0.000000,0.000000,0.000000,0.000000,0.000000,1771415887.329718,0.000000
94.000000,13266.006203,13346.941870,8740.359097,10891.938018,8743.711858,31636.323826,-4813.626982,-2973.787841,9930.656544,3077.365825,4712.150063,8169.987282,26538.226192,21952.721113,2085.685979,6169.774374,-0.004000,-0.006000,1.002000,192.000000,0.000000,0.000000,0.000000,0.000000,0.000000,0.000000,0.000000,0.000000,0.000000,1771415887.329730,0.000000
96.000000,13290.280198,13367.483123,8765.236588,10916.010847,8785.509620,31654.585201,-4794.359779,-2956.353480,9965.033527,3116.034343,4757.635863,8203.872526,26563.349553,22003.839553,2128.891901,6185.398243,-0.004000,-0.006000,1.002000,192.000000,0.000000,0.000000,0.000000,0.000000,0.000000,0.000000,0.000000,0.000000,0.000000,1771415887.329742,0.000000
98.000000,13247.789532,13325.618306,8702.003503,10862.791343,8702.137614,31608.965291,-4838.303308,-2995.536088,9945.811027,3083.356092,4720.956650,8180.112622,26562.880166,21969.462570,2104.014409,6173.462412,-0.004000,-0.006000,1.002000,192.000000,0.000000,0.000000,0.000000,0.000000,0.000000,0.000000,0.000000,0.000000,0.000000,1771415887.329753,0.000000
100.000000,13307.647503,13382.414089,8792.170440,10934.182815,8833.297650,31682.636640,-4781.641636,-2945.624643,9957.657451,3099.203479,4735.686449,8189.455651,26582.884977,21982.001899,2117.894842,6158.509095,-0.002000,-0.010000,1.002000,192.000000,127.500000,120.000000,127.500000,88.000000,15.500000,40.000000,0.000000,0.000000,0.000000,1771415887.329764,0.000000
102.000000,13272.756430,13348.417085,8728.959707,10882.259712,8729.496149,31632.568733,-4824.355820,-2979.174611,9986.804126,3116.548433,4754.059583,8204.297209,26611.048175,21999.659777,2136.156218,6172.925970,-0.002000,-0.010000,1.002000,192.000000,0.000000,0.000000,0.000000,0.000000,0.000000,0.000000,0.000000,0.000000,0.000000,1771415887.329776,0.000000
104.000000,13284.893427,13357.983632,8751.736134,10903.918553,8775.786612,31647.589105,-4813.135244,-2972.714957,9945.878082,3081.433842,4722.387162,8168.780287,26571.574995,21951.245898,2094.246697,6155.782182,-0.002000,-0.010000,1.002000,192.000000,0.000000,0.000000,0.000000,0.000000,0.000000,0.000000,0.000000,0.000000,0.000000,1771415887.329787,0.000000
106.000000,13298.304474,13370.254740,8775.876019,10922.068169,8801.021731,31666.677495,-4793.823337,-2953.604216,9988.927542,3123.633936,4767.001243,8204.766596,26612.366928,22017.429413,2136.782066,6182.201944,-0.002000,-0.010000,1.002000,192.000000,0.000000,0.000000,0.000000,0.000000,0.000000,0.000000,0.000000,0.000000,0.000000,1771415887.329799,0.000000
108.000000,13263.547512,13330.379227,8713.492300,10866.747602,8699.365997,31618.107154,-4834.458808,-2988.852917,9970.040318,3088.005255,4731.372563,8179.151497,26573.810169,21968.322631,2109.155310,6159.894903,-0.002000,-0.010000,1.002000,192.000000,0.000000,0.000000,0.000000,0.000000,0.000000,0.000000,0.000000,0.000000,0.000000,1771415887.329811,0.000000
110.000000,13311.201431,13382.123516,8790.225838,10929.108969,8836.270432,31686.816417,-4781.507526,-2942.450695,9972.811934,3098.264706,4741.453200,8185.298227,26584.740172,21994.988262,2119.571223,6160.408993,0.004000,-0.012000,1.006000,192.000000,0.000000,16.000000,127.500000,80.000000,15.500000,56.000000,0.000000,0.000000,0.000000,1771415887.329822,0.000000
112.000000,13284.915779,13351.881606,8733.988849,10876.917646,8728.400913,31639.721291,-4815.728046,-2963.751908,9985.977112,3116.637840,4777.685377,8207.918192,26603.225065,22018.189373,2127.975479,6165.505191,0.004000,-0.012000,1.006000,192.000000,0.000000,0.000000,0.000000,0.000000,0.000000,0.000000,0.000000,0.000000,0.000000,1771415887.329834,0.000000
114.000000,13296.382224,13365.471466,8758.218140,10885.858343,8763.157876,31659.390826,-4806.519128,-2958.074565,9967.425164,3077.388177,4735.261766,8175.396404,26569.988021,21971.518930,2084.300170,6160.386641,0.004000,-0.012000,1.006000,192.000000,0.000000,0.000000,0.000000,0.000000,0.000000,0.000000,0.000000,0.000000,0.000000,1771415887.329848,0.000000
116.000000,13300.271428,13369.763001,8767.047079,10909.327675,8777.328882,31676.065228,-4793.599819,-2950.027937,9998.292923,3123.276308,4783.943866,8209.728683,26612.545742,22017.608227,2121.180549,6168.612083,0.004000,-0.012000,1.006000,192.000000,0.000000,0.000000,0.000000,0.000000,0.000000,0.000000,0.000000,0.000000,0.000000,1771415887.329860,0.000000
118.000000,13251.410514,13322.913745,8699.343645,10853.716535,8686.737262,31602.595043,-4842.036050,-2995.379626,9951.577777,3068.916865,4730.277327,8169.830819,26553.134805,21963.025267,2095.923078,6166.421612,0.004000,-0.012000,1.006000,192.000000,0.000000,0.000000,0.000000,0.000000,0.000000,0.000000,0.000000,0.000000,0.000000,1771415887.329871,0.000000
120.000000,13305.814660,13373.652205,8783.788536,10925.331524,8819.216051,31679.283879,-4786.894296,-2947.122210,9956.919844,3076.717624,4746.325880,8179.375014,26564.444788,21977.442143,2109.222366,6157.391507,0.002000,-0.010000,1.004000,192.000000,0.000000,8.000000,127.500000,88.000000,15.500000,48.000000,0.000000,0.000000,0.000000,1771415887.329884,0.000000
122.000000,13282.859419,13351.926309,8725.584593,10878.929303,8717.336800,31634.915666,-4821.740666,-2969.093975,9983.138440,3106.043113,4766.442450,8207.068826,26609.327091,21998.385727,2129.607156,6151.825923,0.002000,-0.010000,1.004000,192.000000,0.000000,0.000000,0.000000,0.000000,0.000000,0.000000,0.000000,0.000000,0.000000,1771415887.329895,0.000000
124.000000,13286.793326,13360.710545,8751.020879,10900.498736,8752.741963,31661.536594,-4810.609497,-2966.277655,9948.537940,3076.270589,4731.283156,8180.894933,26547.211593,21973.999974,2086.781214,6131.262318,0.002000,-0.010000,1.004000,192.000000,0.000000,0.000000,0.000000,0.000000,0.000000,0.000000,0.000000,0.000000,0.000000,1771415887.329907,0.000000
126.000000,13307.155765,13382.525847,8779.340539,10923.744550,8790.091728,31688.559853,-4789.442395,-2945.244663,9989.352225,3125.355020,4771.650406,8222.312715,26570.747980,22027.912382,2123.482778,6155.469257,0.002000,-0.010000,1.004000,192.000000,0.000000,0.000000,0.000000,0.000000,0.000000,0.000000,0.000000,0.000000,0.000000,1771415887.329919,0.000000
128.000000,13262.496980,13334.670762,8705.199803,10868.938073,8682.289264,31623.762145,-4835.643451,-2989.165841,9961.099620,3090.016912,4732.557205,8193.031930,26546.742206,21986.002861,2093.196165,6153.524656,0.002000,-0.010000,1.004000,192.000000,0.000000,0.000000,0.000000,0.000000,0.000000,0.000000,0.000000,0.000000,0.000000,1771415887.329931,0.000000
130.000000,13308.787442,13380.402432,8777.820620,10936.641507,8807.660199,31691.867911,-4785.620247,-2947.099858,9960.183198,3089.703988,4740.581482,8192.786061,26552.263087,21997.871637,2093.509089,6157.838542,0.006000,-0.012000,1.004000,192.000000,0.000000,24.000000,127.500000,80.000000,15.500000,48.000000,0.000000,0.000000,0.000000,1771415887.329943,0.000000
132.000000,13276.444468,13348.215920,8719.639029,10889.859306,8707.434977,31638.357835,-4820.511320,-2974.413690,9979.182181,3109.619392,4757.635863,8210.578049,26575.754771,22015.976550,2112.418665,6165.907522,0.006000,-0.012000,1.004000,192.000000,0.000000,0.000000,0.000000,0.000000,0.000000,0.000000,0.000000,0.000000,0.000000,1771415887.329954,0.000000
134.000000,13291.151916,13363.616271,8743.711858,10901.079881,8756.832332,31654.764015,-4808.083750,-2962.746079,9942.525320,3078.751633,4725.181130,8182.124279,26565.696486,21985.444067,2067.826935,6142.147618,0.006000,-0.012000,1.004000,192.000000,0.000000,0.000000,0.000000,0.000000,0.000000,0.000000,0.000000,0.000000,0.000000,1771415887.329966,0.000000
136.000000,13299.466765,13372.869894,8761.056812,10916.167309,8793.645655,31681.586108,-4793.510412,-2954.252416,9985.530077,3123.544529,4768.185886,8215.808358,26576.425323,22037.903611,2117.090180,6146.774429,0.006000,-0.012000,1.004000,192.000000,0.000000,0.000000,0.000000,0.000000,0.000000,0.000000,0.000000,0.000000,0.000000,1771415887.329978,0.000000
138.000000,13249.018878,13320.633867,8696.057939,10854.744715,8684.859715,31622.733965,-4839.465599,-2997.592449,9944.492274,3077.164659,4721.850720,8177.072785,26544.350570,21994.183599,2094.336104,6168.410917,0.006000,-0.012000,1.004000,192.000000,0.000000,0.000000,0.000000,0.000000,0.000000,0.000000,0.000000,0.000000,0.000000,1771415887.329990,0.000000
140.000000,13303.735948,13370.478257,8777.105364,10919.520070,8814.678647,31687.241100,-4789.330636,-2955.906445,9956.897492,3082.350264,4740.715592,8179.129145,26554.922945,21995.256483,2097.264182,6157.078583,0.006000,-0.012000,1.004000,192.000000,0.000000,0.000000,127.500000,80.000000,15.500000,32.000000,0.000000,0.000000,0.000000,1771415887.330002,0.000000
142.000000,13272.242340,13339.610498,8725.517538,10880.315111,8721.561279,31639.006035,-4823.841730,-2983.264981,9973.974225,3095.090758,4753.679604,8192.048453,26590.149294,22026.012483,2117.380752,6184.392415,0.006000,-0.012000,1.004000,192.000000,0.000000,0.000000,0.000000,0.000000,0.000000,0.000000,0.000000,0.000000,0.000000,1771415887.330013,0.000000
144.000000,13285.988663,13358.765943,8749.590367,10892.787384,8773.596141,31654.026407,-4812.956430,-2971.910295,9951.801294,3072.269627,4721.470740,8169.607302,26539.947276,21981.197236,2089.396368,6154.686946,0.006000,-0.012000,1.004000,192.000000,0.000000,0.000000,0.000000,0.000000,0.000000,0.000000,0.000000,0.000000,0.000000,1771415887.330024,0.000000
146.000000,13297.745681,13365.784391,8767.427059,10912.076940,8797.646618,31672.444245,-4797.444319,-2959.750946,9978.221056,3114.357962,4771.806869,8204.297209,26610.198809,22039.155309,2130.478875,6170.981368,0.006000,-0.012000,1.004000,192.000000,0.000000,0.000000,0.000000,0.000000,0.000000,0.000000,0.000000,0.000000,0.000000,1771415887.330037,0.000000
148.000000,13266.050907,13331.362704,8709.468986,10863.640709,8704.216326,31622.264579,-4839.644413,-2993.569135,9961.077268,3080.226848,4737.251072,8178.033910,26572.312602,21997.893989,2103.433264,6174.401185,0.006000,-0.012000,1.004000,192.000000,0.000000,0.000000,0.000000,0.000000,0.000000,0.000000,0.000000,0.000000,0.000000,1771415887.330049,0.000000
150.000000,13308.228649,13377.854333,8799.211240,10928.371361,8837.723295,31686.928175,-4786.581372,-2949.402088,9962.977167,3094.330799,4748.628110,8186.996959,26561.851986,22018.457594,2111.837520,6172.724804,0.002000,-0.014000,1.008000,192.000000,0.000000,8.000000,127.500000,72.000000,15.500000,64.000000,0.000000,0.000000,0.000000,1771415887.330060,0.000000
152.000000,13281.898294,13347.031277,8742.437809,10884.986625,8737.855701,31633.216933,-4822.142997,-2976.447699,9984.993635,3117.554261,4770.108136,8207.627619,26591.624509,22039.177661,2128.847197,6170.959016,0.002000,-0.014000,1.008000,192.000000,0.000000,0.000000,0.000000,0.000000,0.000000,0.000000,0.000000,0.000000,0.000000,1771415887.330071,0.000000
154.000000,13275.192770,13340.035181,8761.749716,10892.519163,8764.186056,31642.157631,-4817.538538,-2983.421443,9953.365916,3076.449403,4723.974135,8169.897875,26575.933585,21998.162210,2092.838537,6149.233121,0.002000,-0.014000,1.008000,192.000000,0.000000,0.000000,0.000000,0.000000,0.000000,0.000000,0.000000,0.000000,0.000000,1771415887.330083,0.000000
156.000000,13283.105288,13350.585204,8776.635978,10914.625038,8788.907086,31650.427777,-4800.595915,-2970.971521,9975.315329,3100.745750,4756.048889,8189.522706,26558.186300,22021.609190,2129.987136,6164.968749,0.002000,-0.014000,1.008000,192.000000,0.000000,0.000000,0.000000,0.000000,0.000000,0.000000,0.000000,0.000000,0.000000,1771415887.330095,0.000000
158.000000,13250.784665,13319.672742,8700.394177,10862.768991,8686.357282,31605.120791,-4838.996212,-3001.794577,9936.155073,3073.767194,4726.052848,8166.790982,26543.948238,21994.742393,2094.649028,6159.559627,0.002000,-0.014000,1.008000,192.000000,0.000000,0.000000,0.000000,0.000000,0.000000,0.000000,0.000000,0.000000,0.000000,1771415887.330107,0.000000
160.000000,13301.254904,13373.160466,8775.138411,10926.024428,8816.265621,31674.522957,-4787.095462,-2954.766507,9953.857655,3082.350264,4729.427961,8175.016424,26567.864605,22005.605341,2098.247659,6152.362365,0.003000,-0.014000,1.007000,192.000000,0.000000,16.000000,127.500000,72.000000,15.500000,56.000000,0.000000,0.000000,0.000000,1771415887.330118,0.000000
162.000000,13276.265654,13351.434571,8726.389256,10885.612474,8716.487433,31639.922457,-4815.817453,-2972.960827,9964.586492,3110.088779,4763.000281,8200.653875,26592.205655,22019.061091,2117.850139,6151.825923,0.003000,-0.014000,1.007000,192.000000,0.000000,0.000000,0.000000,0.000000,0.000000,0.000000,0.000000,0.000000,0.000000,1771415887.330130,0.000000
164.000000,13283.418212,13356.173141,8740.068524,10897.950637,8753.792495,31651.612419,-4810.050703,-2970.792707,9949.409658,3081.433842,4731.081990,8177.877447,26540.260201,21989.601492,2073.906609,6138.705449,0.003000,-0.014000,1.007000,192.000000,0.000000,0.000000,0.000000,0.000000,0.000000,0.000000,0.000000,0.000000,0.000000,1771415887.330141,0.000000
166.000000,13297.745681,13371.394679,8757.480533,10926.985553,8785.777841,31679.038010,-4792.817508,-2958.320434,9973.951873,3120.236471,4765.168400,8207.538212,26605.996681,22028.024140,2108.730627,6176.725766,0.003000,-0.014000,1.007000,192.000000,0.000000,0.000000,0.000000,0.000000,0.000000,0.000000,0.000000,0.000000,0.000000,1771415887.330152,0.000000
168.000000,13256.551416,13326.847652,8693.219268,10873.810753,8700.438881,31621.214047,-4838.683288,-3000.945211,9951.175445,3087.558220,4733.719496,8177.877447,26572.759637,21997.916341,2089.284609,6173.998853,0.003000,-0.014000,1.007000,192.000000,0.000000,0.000000,0.000000,0.000000,0.000000,0.000000,0.000000,0.000000,0.000000,1771415887.330164,0.000000
170.000000,13303.557134,13373.607501,8779.273484,10937.222652,8828.156749,31686.637603,-4790.962314,-2960.913236,9965.502914,3087.066482,4734.322993,8176.178715,26564.020105,21997.223437,2101.354551,6171.920141,0.003500,-0.011000,1.006500,192.000000,0.000000,16.000000,127.500000,96.000000,15.500000,56.000000,0.000000,0.000000,0.000000,1771415887.330175,0.000000
172.000000,13276.667986,13346.897167,8727.283326,10896.497774,8728.065637,31637.061433,-4824.177006,-2983.242629,9971.716699,3108.948840,4767.872962,8198.105776,26582.840274,22028.694693,2121.784046,6177.865705,0.003500,-0.011000,1.006500,192.000000,0.000000,0.000000,0.000000,0.000000,0.000000,0.000000,0.000000,0.000000,0.000000,1771415887.330186,0.000000
174.000000,13285.631035,13354.206187,8748.875111,10911.138166,8762.308510,31644.906896,-4815.236308,-2979.062853,9952.605957,3076.896438,4722.208348,8173.943540,26558.052189,21988.819181,2084.568391,6161.459525,0.003500,-0.011000,1.006500,192.000000,0.000000,0.000000,0.000000,0.000000,0.000000,0.000000,0.000000,0.000000,0.000000,1771415887.330198,0.000000
176.000000,13303.959465,13375.708565,8771.763298,10933.400504,8814.522185,31669.337352,-4795.857346,-2959.505076,9987.698196,3117.397799,4775.427851,8208.119358,26627.163783,22029.700521,2134.479837,6177.798650,0.003500,-0.011000,1.006500,192.000000,0.000000,0.000000,0.000000,0.000000,0.000000,0.000000,0.000000,0.000000,0.000000,1771415887.330209,0.000000
178.000000,13266.766163,13336.145978,8711.413588,10875.397727,8708.709026,31624.253884,-4839.353840,-2996.541917,9968.922731,3096.342456,4742.079048,8187.846325,26602.688623,22006.342948,2100.460482,6163.381775,0.003500,-0.011000,1.006500,192.000000,0.000000,0.000000,0.000000,0.000000,0.000000,0.000000,0.000000,0.000000,0.000000,1771415887.808708,0.000000
180.000000,13317.012884,13383.755193,8792.505716,10945.917481,8844.048839,31690.415047,-4788.548325,-2952.330166,9978.243408,3098.287058,4750.639767,8185.834668,26574.167797,22008.555771,2101.734531,6161.101897,0.002750,-0.009500,1.004250,192.000000,0.000000,8.000000,127.500000,96.000000,15.500000,40.000000,0.000000,0.000000,0.000000,1771415887.808799,0.000000
182.000000,13283.597026,13351.255757,8729.563204,10897.458899,8731.887785,31640.816527,-4825.138131,-2982.460318,9988.949894,3118.761256,4771.784517,8206.442977,26590.059887,22032.874469,2114.407970,6165.728708,0.002750,-0.009500,1.004250,192.000000,0.000000,0.000000,0.000000,0.000000,0.000000,0.000000,0.000000,0.000000,0.000000,1771415887.808839,0.000000
184.000000,13280.534837,13351.255757,8741.297870,10907.785405,8757.368774,31644.750434,-4814.364590,-2973.519620,9949.566120,3076.404700,4725.806978,8174.100003,26550.094968,21989.310919,2075.314769,6158.017356,0.002750,-0.009500,1.004250,192.000000,0.000000,0.000000,0.000000,0.000000,0.000000,0.000000,0.000000,0.000000,0.000000,1771415887.808876,0.000000
186.000000,13297.991550,13367.840751,8766.085954,10929.556004,8770.288082,31659.659047,-4793.465709,-2953.961844,9968.565103,3109.909965,4772.700938,8207.717026,26595.916044,22020.916286,2114.251508,6186.202906,0.002750,-0.009500,1.004250,192.000000,0.000000,0.000000,0.000000,0.000000,0.000000,0.000000,0.000000,0.000000,0.000000,1771415887.808914,0.000000
188.000000,13264.106305,13332.033257,8700.349474,10872.514352,8681.730471,31608.473552,-4833.005945,-2986.617742,9953.857655,3082.059691,4746.974080,8189.567410,26563.953050,21975.475189,2076.231191,6170.757850,0.002750,-0.009500,1.004250,192.000000,0.000000,0.000000,0.000000,0.000000,0.000000,0.000000,0.000000,0.000000,0.000000,1771415887.808952,0.000000
190.000000,13307.267524,13374.300405,8780.256960,10932.126454,8809.157766,31666.386922,-4783.295665,-2947.144562,9957.679803,3079.265723,4751.444429,8186.840497,26550.698465,21984.929977,2089.709293,6162.554760,0.003375,-0.012750,1.001125,192.000000,0.000000,16.000000,127.500000,64.000000,15.500000,24.000000,0.000000,0.000000,0.000000,1771415887.808995,0.000000
192.000000,13281.071279,13350.138170,8715.079274,10898.978817,8714.811053,31630.288855,-4817.225613,-2972.893771,9975.449440,3104.322029,4774.623188,8209.102834,26572.111436,22013.294341,2108.395351,6178.156278,0.003375,-0.012750,1.001125,192.000000,0.000000,0.000000,0.000000,0.000000,0.000000,0.000000,0.000000,0.000000,0.000000,1771415887.809017,0.000000
194.000000,13279.752526,13349.177045,8734.011201,10908.858288,8739.643841,31644.683378,-4810.877718,-2974.324283,9942.145341,3070.012101,4730.031458,8176.379880,26527.966741,21980.280814,2070.620903,6169.640263,0.003375,-0.012750,1.001125,192.000000,0.000000,0.000000,0.000000,0.000000,0.000000,0.000000,0.000000,0.000000,0.000000,1771415887.809028,0.000000
196.000000,13299.936151,13369.360670,8763.604911,10928.371361,8781.463955,31676.936946,-4790.627037,-2954.922969,9977.416393,3108.524157,4766.554209,8205.660666,26590.976309,22025.610152,2112.016334,6184.548877,0.003375,-0.012750,1.001125,192.000000,0.000000,0.000000,0.000000,0.000000,0.000000,0.000000,0.000000,0.000000,0.000000,1771415887.809040,0.000000
198.000000,13266.989680,13334.603707,8696.952009,10870.793268,8704.261029,31617.146029,-4836.828093,-2991.132795,9950.191969,3081.456194,4747.152894,8185.946427,26597.435963,21997.916341,2091.832708,6162.644167,0.003375,-0.012750,1.001125,192.000000,0.000000,0.000000,0.000000,0.000000,0.000000,0.000000,0.000000,0.000000,0.000000,1771415887.809052,0.000000
200.000000,13312.922515,13382.034109,8786.470745,10928.036085,8827.396789,31682.211957,-4790.559982,-2954.520637,9961.032565,3087.267648,4750.349194,8184.471212,26574.190149,21993.378936,2097.465348,6162.465353,0.003375,-0.012750,1.001125,192.000000,0.000000,0.000000,127.500000,72.000000,15.500000,56.000000,0.000000,0.000000,0.000000,1771415887.809064,0.000000
202.000000,13286.011015,13355.100257,8725.741056,10893.793213,8726.791588,31631.808773,-4824.556985,-2982.482670,9982.646702,3111.027552,4773.192677,8201.682055,26567.797550,22030.929867,2119.571223,6171.942493,0.003375,-0.012750,1.001125,192.000000,0.000000,0.000000,0.000000,0.000000,0.000000,0.000000,0.000000,0.000000,0.000000,1771415887.809075,0.000000
204.000000,13291.598951,13365.315004,8743.309527,10902.778614,8763.046117,31648.125547,-4817.203262,-2978.280542,9949.811989,3074.325988,4721.336630,8170.322558,26585.544835,21984.818218,2081.573258,6148.741382,0.003375,-0.012750,1.001125,192.000000,0.000000,0.000000,0.000000,0.000000,0.000000,0.000000,0.000000,0.000000,0.000000,1771415887.809086,0.000000
206.000000,13312.631942,13384.582208,8775.093707,10929.846576,8794.651484,31685.542367,-4794.091558,-2957.404012,9986.133574,3122.359886,4777.707729,8211.606230,26580.649803,22046.933716,2120.062962,6168.097993,0.003375,-0.012750,1.001125,192.000000,0.000000,0.000000,0.000000,0.000000,0.000000,0.000000,0.000000,0.000000,0.000000,1771415887.809098,0.000000
208.000000,13277.606759,13352.306289,8707.054997,10875.733003,8695.655608,31638.536649,-4837.051611,-2989.992856,9964.474733,3097.907078,4743.375450,8194.261276,26569.496282,22018.390539,2094.291400,6163.985272,0.003375,-0.012750,1.001125,192.000000,0.000000,0.000000,0.000000,0.000000,0.000000,0.000000,0.000000,0.000000,0.000000,1771415887.809110,0.000000
210.000000,13320.723274,13393.031167,8785.263751,10938.273184,8818.344333,31698.819303,-4786.916648,-2953.023070,9970.152077,3102.109206,4750.080973,8196.988189,26579.062829,22033.477966,2096.146595,6166.958054,0.000687,-0.012375,1.003563,192.000000,127.500000,120.000000,127.500000,80.000000,15.500000,56.000000,0.000000,0.000000,0.000000,1771415887.809129,0.000000
212.000000,13282.501791,13352.865082,8716.107454,10888.585256,8711.525346,31649.690169,-4828.736762,-2989.881097,9980.344472,3114.335610,4772.857401,8207.314695,26608.254207,22037.903611,2116.151406,6181.598447,0.000687,-0.012375,1.003563,192.000000,0.000000,0.000000,0.000000,0.000000,0.000000,0.000000,0.000000,0.000000,0.000000,1771415887.809141,0.000000
214.000000,13292.448317,13361.202283,8738.481550,10898.777652,8772.500905,31658.541460,-4819.751360,-2981.901524,9948.202663,3069.363900,4719.034400,8163.259406,26547.122186,21983.477114,2082.377920,6181.956074,0.000687,-0.012375,1.003563,192.000000,0.000000,0.000000,0.000000,0.000000,0.000000,0.000000,0.000000,0.000000,0.000000,1771415887.809152,0.000000
216.000000,13309.457995,13379.351900,8763.359042,10928.371361,8805.983818,31679.507396,-4799.947715,-2959.952111,9989.620446,3117.978945,4779.205296,8203.045512,26616.971388,22036.428396,2128.310755,6187.499307,0.000687,-0.012375,1.003563,192.000000,0.000000,0.000000,0.000000,0.000000,0.000000,0.000000,0.000000,0.000000,0.000000,1771415887.809163,0.000000
218.000000,13274.164590,13343.767922,8697.577858,10869.496866,8704.484547,31619.001224,-4838.817398,-2989.299952,9953.276509,3083.758424,4747.309357,8183.487735,26553.224212,22003.593684,2103.030932,6178.603313,0.000687,-0.012375,1.003563,192.000000,0.000000,0.000000,0.000000,0.000000,0.000000,0.000000,0.000000,0.000000,0.000000,1771415887.809174,0.000000
220.000000,13323.316076,13392.561781,8775.496039,10936.127417,8825.921574,31672.421893,-4788.973008,-2946.988099,9968.609806,3094.509613,4764.117868,8195.155346,26588.562320,22023.352626,2104.215575,6161.660691,-0.001656,-0.013188,1.004781,192.000000,127.500000,112.000000,127.500000,72.000000,15.500000,56.000000,0.000000,0.000000,0.000000,1771415887.809186,0.000000
222.000000,13299.489117,13364.309176,8722.880032,10895.715463,8724.735227,31621.906951,-4818.030276,-2964.489515,9994.984865,3118.269517,4784.033273,8216.434207,26584.963689,22034.081463,2115.302040,6174.512944,-0.001656,-0.013188,1.004781,192.000000,0.000000,0.000000,0.000000,0.000000,0.000000,0.000000,0.000000,0.000000,0.000000,1771415887.809197,0.000000
224.000000,13297.522163,13363.146885,8744.449466,10902.689207,8753.703088,31630.557076,-4812.598802,-2963.193114,9961.390193,3082.551430,4748.829275,8185.566447,26549.379712,21989.221512,2070.755013,6161.459525,-0.001656,-0.013188,1.004781,192.000000,0.000000,0.000000,0.000000,0.000000,0.000000,0.000000,0.000000,0.000000,0.000000,1771415887.809208,0.000000
226.000000,13317.974009,13379.038975,8772.769126,10929.131321,8798.943019,31658.005018,-4790.604686,-2946.675175,9997.465908,3120.638802,4786.939000,8218.267050,26594.217312,22038.104777,2117.157235,6166.175743,-0.001656,-0.013188,1.004781,192.000000,0.000000,0.000000,0.000000,0.000000,0.000000,0.000000,0.000000,0.000000,0.000000,1771415887.809220,0.000000
228.000000,13278.992567,13346.807760,8713.402893,10882.282064,8680.478773,31601.700974,-4832.290689,-2982.750891,9968.989786,3089.346360,4754.461915,8194.864773,26554.878241,22004.621864,2087.004732,6160.051365,-0.001656,-0.013188,1.004781,192.000000,0.000000,0.000000,0.000000,0.000000,0.000000,0.000000,0.000000,0.000000,0.000000,1771415887.809231,0.000000
230.000000,13318.935134,13386.973844,8784.839068,10941.402428,8798.764205,31655.747492,-4785.977875,-2947.256320,9972.320196,3103.919697,4760.742755,8202.017331,26579.822788,22031.443957,2086.401234,6141.834693,-0.001656,-0.013188,1.004781,192.000000,0.000000,0.000000,0.000000,0.000000,0.000000,0.000000,0.000000,0.000000,0.000000,1771415887.809242,0.000000
232.000000,13280.691300,13352.239234,8719.683733,10901.638675,8718.767311,31617.883637,-4820.734837,-2977.632341,9976.187048,3111.876918,4771.113964,8211.472119,26621.821716,22021.408024,2105.221403,6163.560589,-0.002000,-0.008000,1.000000,192.000000,127.500000,120.000000,127.500000,96.000000,15.500000,32.000000,0.000000,0.000000,0.000000,1771415887.809254,0.000000
234.000000,13290.615474,13357.648356,8739.889710,10909.707655,8757.502885,31628.523067,-4814.074017,-2971.373853,9956.472809,3079.712758,4727.818635,8179.352662,26524.859849,21993.513047,2067.916342,6161.772449,-0.002000,-0.008000,1.000000,192.000000,0.000000,0.000000,0.000000,0.000000,0.000000,0.000000,0.000000,0.000000,0.000000,1771415887.809265,0.000000
236.000000,13300.941980,13371.081754,8760.922701,10931.210033,8794.472670,31661.380131,-4795.522069,-2958.432193,9986.759423,3114.402665,4779.719386,8207.694674,26582.035611,22037.858908,2122.320488,6172.166010,-0.002000,-0.008000,1.000000,192.000000,0.000000,0.000000,0.000000,0.000000,0.000000,0.000000,0.000000,0.000000,0.000000,1771415887.809277,0.000000
238.000000,13260.351212,13328.188756,8692.951047,10876.537666,8684.703253,31606.126619,-4840.717297,-2997.994780,9955.064649,3085.926543,4741.743772,8183.331273,26552.464253,22002.319634,2091.676246,6182.336054,-0.002000,-0.008000,1.000000,192.000000,0.000000,0.000000,0.000000,0.000000,0.000000,0.000000,0.000000,0.000000,0.000000,1771415887.809289,0.000000
240.000000,13299.600875,13370.880588,8767.091783,10937.580280,8817.606725,31669.069132,-4791.297590,-2959.482725,9950.571948,3087.357055,4741.989641,8180.336139,26568.937489,22002.632559,2097.308886,6182.984255,-0.002000,-0.008000,1.000000,192.000000,0.000000,0.000000,0.000000,0.000000,0.000000,0.000000,0.000000,0.000000,0.000000,1771415887.809300,0.000000
242.000000,13282.032404,13345.824283,8721.762445,10892.005073,8722.164777,31621.214047,-4820.176044,-2976.492402,9974.756536,3107.719494,4771.337482,8204.319561,26601.481629,22028.694693,2122.119322,6194.249534,0.006000,-0.012000,1.000000,192.000000,0.000000,24.000000,127.500000,80.000000,15.500000,32.000000,0.000000,0.000000,0.000000,1771415887.809314,0.000000
244.000000,13283.798192,13353.446228,8735.039381,10904.611457,8764.253111,31641.285913,-4813.537575,-2972.312626,9953.209454,3075.242409,4738.972156,8179.151497,26535.342817,21992.238997,2085.261295,6161.817153,0.006000,-0.012000,1.000000,192.000000,0.000000,0.000000,0.000000,0.000000,0.000000,0.000000,0.000000,0.000000,0.000000,1771415887.809325,0.000000
246.000000,13304.652370,13375.485048,8770.042213,10935.300402,8787.588333,31667.191585,-4789.554154,-2948.977405,10000.014007,3118.671849,4781.820450,8215.920116,26582.348535,22042.552774,2120.912328,6177.061042,0.006000,-0.012000,1.000000,192.000000,0.000000,0.000000,0.000000,0.000000,0.000000,0.000000,0.000000,0.000000,0.000000,1771415887.809337,0.000000
248.000000,13271.236512,13344.572585,8700.952971,10877.856419,8684.412680,31612.675680,-4833.900015,-2982.281504,9963.759478,3097.348284,4758.038194,8198.485756,26563.394256,22015.328350,2082.579086,6163.046499,0.006000,-0.012000,1.000000,192.000000,0.000000,0.000000,0.000000,0.000000,0.000000,0.000000,0.000000,0.000000,0.000000,1771415887.809348,0.000000
250.000000,13307.938076,13379.463658,8774.892542,10938.139074,8808.174289,31678.367457,-4790.336465,-2950.117344,9975.091812,3096.051883,4755.266578,8193.389558,26602.062774,22020.312789,2084.210763,6157.302100,0.006000,-0.012000,1.000000,192.000000,0.000000,0.000000,0.000000,0.000000,0.000000,0.000000,0.000000,0.000000,0.000000,1771415887.809360,0.000000
252.000000,13295.041119,13362.521036,8730.479626,10904.522050,8723.461178,31638.380186,-4820.757189,-2970.368024,9994.224905,3121.801093,4779.607627,8214.958991,26592.920910,22047.805434,2101.823938,6171.227237,0.006000,-0.012000,1.000000,192.000000,0.000000,0.000000,127.500000,80.000000,15.500000,40.000000,0.000000,0.000000,0.000000,1771415887.809371,0.000000
254.000000,13286.167477,13349.288803,8742.281347,10906.310190,8734.905271,31638.804870,-4818.745532,-2978.101728,9974.376556,3079.086909,4736.714630,8176.156363,26555.906422,21999.905646,2065.748223,6156.229217,0.006000,-0.012000,1.000000,192.000000,0.000000,0.000000,0.000000,0.000000,0.000000,0.000000,0.000000,0.000000,0.000000,1771415887.809383,0.000000
0.000000,13284.602855,13364.465638,8783.140335,10932.707600,8779.072318,31661.916573,-4796.460843,-2960.488553,9965.480562,3110.446407,4777.640674,8206.644142,26592.540931,22045.883184,2106.875432,6167.874475,0.006000,-0.012000,1.000000,192.000000,0.000000,0.000000,0.000000,0.000000,0.000000,0.000000,0.000000,0.000000,0.000000,1771415887.809395,0.000000
2.000000,13251.410514,13327.831129,8716.263916,10874.704823,8696.572029,31600.695145,-4846.774619,-3003.538013,9965.413507,3096.275401,4736.044077,8188.315712,26592.272710,22009.271027,2093.307923,6160.029013,0.006000,-0.012000,1.000000,192.000000,0.000000,0.000000,0.000000,0.000000,0.000000,0.000000,0.000000,0.000000,0.000000,1771415887.809407,0.000000
4.000000,13299.355006,13371.349975,8786.917780,10942.251795,8828.648487,31669.739684,-4796.371436,-2960.801478,9956.875140,3092.520308,4739.150970,8183.823011,26628.907219,22024.850193,2105.333162,6158.777315,0.006000,-0.012000,1.000000,192.000000,0.000000,0.000000,0.000000,0.000000,0.000000,0.000000,0.000000,0.000000,0.000000,1771415887.809418,0.000000
6.000000,13263.256939,13328.456977,8733.452408,10899.761128,8718.119111,31638.313131,-4829.675535,-2981.856821,9982.311425,3101.259840,4768.834087,8201.391483,26565.271803,22032.896821,2120.420589,6184.660636,0.002000,-0.014000,1.006000,192.000000,0.000000,8.000000,127.500000,72.000000,15.500000,56.000000,0.000000,0.000000,0.000000,1771415887.809429,0.000000
8.000000,13273.069355,13345.153731,8733.765332,10914.826204,8749.858588,31666.275163,-4823.797026,-2976.492402,9950.236672,3074.325988,4727.393952,8177.296302,26556.912250,21999.548018,2082.757900,6181.285522,0.002000,-0.014000,1.006000,192.000000,0.000000,0.000000,0.000000,0.000000,0.000000,0.000000,0.000000,0.000000,0.000000,1771415887.809441,0.000000
10.000000,13300.606704,13381.743536,8766.421231,10946.833902,8809.023656,31698.975766,-4798.271334,-2951.771373,9981.037376,3126.405552,4773.483249,8215.182509,26596.564245,22051.515824,2131.730572,6201.133871,0.002000,-0.014000,1.006000,192.000000,0.000000,0.000000,0.000000,0.000000,0.000000,0.000000,0.000000,0.000000,0.000000,1771415887.809452,0.000000
12.000000,13273.136410,13352.060420,8703.724587,10890.887486,8714.453425,31635.765032,-4840.449076,-2982.952056,9976.276454,3120.661154,4749.343365,8204.610134,26579.845140,22031.511012,2116.844310,6187.566362,0.002000,-0.014000,1.006000,192.000000,0.000000,0.000000,0.000000,0.000000,0.000000,0.000000,0.000000,0.000000,0.000000,1771415887.809463,0.000000
14.000000,13318.890431,13392.919408,8778.111193,10957.115705,8842.238348,31706.530655,-4787.989532,-2937.019221,9969.705042,3115.207328,4767.202409,8199.201012,26586.997698,22039.512937,2123.460427,6177.217505,0.002000,-0.014000,1.006000,192.000000,0.000000,0.000000,0.000000,0.000000,0.000000,0.000000,0.000000,0.000000,0.000000,1771415887.809474,0.000000
16.000000,13291.911875,13363.102181,8722.745922,10916.413178,8744.069486,31661.558945,-4820.041933,-2962.477858,10000.081062,3136.016802,4790.716444,8223.206785,26627.789632,22051.649934,2139.240758,6189.287447,0.006000,-0.012000,1.006000,192.000000,0.000000,24.000000,127.500000,80.000000,15.500000,56.000000,0.000000,0.000000,0.000000,1771415887.809499,0.000000
18.000000,13300.427890,13369.383022,8743.421286,10922.246983,8765.594216,31660.955448,-4814.431645,-2957.493419,9963.200684,3087.044130,4744.627147,8186.862849,26592.250358,22007.907570,2096.280705,6163.940568,0.006000,-0.012000,1.006000,192.000000,0.000000,0.000000,0.000000,0.000000,0.000000,0.000000,0.000000,0.000000,0.000000,1771415887.809518,0.000000
20.000000,13325.126567,13402.217734,8772.992643,10955.282862,8794.763243,31691.331469,-4790.202354,-2936.549835,10014.006199,3148.936111,4803.792215,8234.025029,26635.724501,22064.971574,2124.220386,6159.805496,0.006000,-0.012000,1.006000,192.000000,0.000000,0.000000,0.000000,0.000000,0.000000,0.000000,0.000000,0.000000,0.000000,1771415887.809530,0.000000
22.000000,13272.443506,13347.254795,8703.903401,10891.133355,8680.143497,31617.056622,-4841.141980,-2982.661484,9975.292978,3106.311334,4756.965310,8201.860869,26542.450671,22026.258353,2096.034836,6166.198095,0.006000,-0.012000,1.006000,192.000000,0.000000,0.000000,0.000000,0.000000,0.000000,0.000000,0.000000,0.000000,0.000000,1771415887.809541,0.000000
24.000000,13322.556117,13403.625894,8783.989702,10958.635623,8820.467749,31673.807701,-4791.789328,-2942.294233,9981.976149,3110.893442,4758.395822,8203.514898,26572.357306,22015.976550,2093.084406,6162.174781,0.006000,-0.012000,1.006000,192.000000,0.000000,0.000000,0.000000,0.000000,0.000000,0.000000,0.000000,0.000000,0.000000,1771415887.809552,0.000000
26.000000,13277.562055,13359.682364,8728.669134,10917.575469,8712.732340,31621.951654,-4827.730933,-2977.028844,9974.935350,3137.223797,4781.149898,8220.792797,26613.551571,22046.732550,2113.536252,6178.603313,0.006000,-0.008000,1.008000,192.000000,0.000000,24.000000,127.500000,96.000000,15.500000,64.000000,0.000000,0.000000,0.000000,1771415887.809564,0.000000
28.000000,13279.260788,13348.908824,8748.316318,10919.274201,8739.800303,31629.417137,-4825.473407,-2978.884039,9945.542806,3080.472717,4733.004240,8178.659758,26541.780119,21994.183599,2078.086385,6156.676251,0.006000,-0.008000,1.008000,192.000000,0.000000,0.000000,0.000000,0.000000,0.000000,0.000000,0.000000,0.000000,0.000000,1771415887.809575,0.000000
30.000000,13297.276294,13370.120629,8779.519353,10945.939832,8782.693301,31645.152765,-4802.607572,-2963.617797,9976.879952,3116.481378,4776.634845,8208.052302,26616.345539,22028.627637,2122.834578,6182.224295,0.006000,-0.008000,1.008000,192.000000,0.000000,0.000000,0.000000,0.000000,0.000000,0.000000,0.000000,0.000000,0.000000,1771415887.809587,0.000000
32.000000,13260.686488,13326.154748,8714.252259,10880.695090,8693.934523,31593.699049,-4849.322718,-3000.654638,9962.798353,3086.530040,4741.319089,8184.292398,26585.589538,22000.464439,2108.127130,6180.302045,0.006000,-0.008000,1.008000,192.000000,0.000000,0.000000,0.000000,0.000000,0.000000,0.000000,0.000000,0.000000,0.000000,1771415887.809598,0.000000
34.000000,13299.891448,13374.658033,8790.292894,10948.733800,8822.434702,31667.839786,-4799.679494,-2959.750946,9965.815838,3086.731206,4743.822484,8183.443032,26565.271803,22007.885219,2109.244717,6177.485726,0.006000,-0.008000,1.008000,192.000000,0.000000,0.000000,0.000000,0.000000,0.000000,0.000000,0.000000,0.000000,0.000000,1771415887.809610,0.000000
36.000000,13271.974119,13349.713486,8739.934413,10905.259658,8736.112265,31633.842782,-4831.843654,-2978.861687,9970.465001,3126.919642,4774.645540,8211.360361,26592.317413,22038.305943,2134.904520,6193.646037,0.006000,-0.010000,1.006000,192.000000,0.000000,24.000000,127.500000,80.000000,15.500000,48.000000,0.000000,0.000000,0.000000,1771415887.809621,0.000000
38.000000,13274.164590,13344.885510,8737.229852,10905.192602,8764.566036,31644.795137,-4829.161445,-2977.252361,9946.883911,3073.722491,4738.659232,8172.423622,26562.723704,21996.597588,2102.539194,6177.932760,0.006000,-0.010000,1.006000,192.000000,0.000000,0.000000,0.000000,0.000000,0.000000,0.000000,0.000000,0.000000,0.000000,1771415887.809632,0.000000
40.000000,13295.465803,13375.373289,8761.906178,10933.489911,8799.635923,31676.646373,-4807.167328,-2958.409841,9975.695309,3119.074180,4774.690244,8204.073692,26602.062774,22040.138786,2145.409840,6203.190232,0.006000,-0.010000,1.006000,192.000000,0.000000,0.000000,0.000000,0.000000,0.000000,0.000000,0.000000,0.000000,0.000000,1771415887.809644,0.000000
42.000000,13263.681622,13338.470559,8694.180393,10872.424945,8697.667265,31622.443393,-4846.864026,-2987.981199,9960.384364,3097.750616,4749.879807,8191.646122,26559.817977,22004.308939,2116.374924,6196.484708,0.006000,-0.010000,1.006000,192.000000,0.000000,0.000000,0.000000,0.000000,0.000000,0.000000,0.000000,0.000000,0.000000,1771415888.289686,0.000000
44.000000,13319.315114,13388.426708,8779.318187,10941.938870,8826.458016,31686.391733,-4794.248020,-2941.221349,9975.561199,3101.215136,4760.586293,8196.809375,26613.126887,22016.580047,2112.731589,6171.406051,0.006000,-0.010000,1.006000,192.000000,0.000000,0.000000,0.000000,0.000000,0.000000,0.000000,0.000000,0.000000,0.000000,1771415888.289771,0.000000
46.000000,13278.009090,13352.976841,8723.908213,10891.446279,8729.518501,31629.752413,-4829.742590,-2973.027882,9984.501896,3123.075142,4790.023540,8218.892898,26587.847064,22045.950239,2130.322412,6167.919179,0.005000,-0.010000,1.007000,192.000000,0.000000,16.000000,127.500000,88.000000,15.500000,64.000000,0.000000,0.000000,0.000000,1771415888.289830,0.000000
48.000000,13281.898294,13357.223673,8735.106437,10889.859306,8758.687527,31624.812677,-4828.736762,-2976.112422,9951.398963,3074.080118,4734.837083,8179.084442,26542.808299,21986.651061,2098.694694,6143.891054,0.005000,-0.010000,1.007000,192.000000,0.000000,0.000000,0.000000,0.000000,0.000000,0.000000,0.000000,0.000000,0.000000,1771415888.289894,0.000000
50.000000,13300.852573,13376.222655,8771.495077,10923.319867,8791.656350,31661.961277,-4804.798043,-2956.621701,9976.634082,3119.789436,4789.263581,8212.008561,26603.403879,22038.350646,2130.165950,6156.296272,0.005000,-0.010000,1.007000,192.000000,0.000000,0.000000,0.000000,0.000000,0.000000,0.000000,0.000000,0.000000,0.000000,1771415888.289948,0.000000
52.000000,13273.382279,13346.159559,8707.546736,10872.849628,8698.136651,31614.016785,-4846.886378,-2987.578867,9970.822629,3099.628162,4759.491057,8196.407044,26580.940375,22014.903666,2093.106758,6153.882283,0.005000,-0.010000,1.007000,192.000000,0.000000,0.000000,0.000000,0.000000,0.000000,0.000000,0.000000,0.000000,0.000000,1771415888.289973,0.000000
54.000000,13308.139242,13378.860161,8776.099536,10935.412161,8823.239365,31666.275163,-4802.562869,-2957.493419,9976.924655,3098.957610,4760.876865,8194.708311,26589.702259,22017.205896,2096.995961,6154.329318,0.005000,-0.010000,1.007000,192.000000,0.000000,0.000000,0.000000,0.000000,0.000000,0.000000,0.000000,0.000000,0.000000,1771415888.289999,0.000000
56.000000,13278.299663,13352.753324,8728.110341,10896.296608,8716.085102,31637.955503,-4830.703715,-2978.057024,9979.495106,3112.838043,4778.870020,8208.097006,26642.273562,22025.006655,2120.241776,6183.207772,0.000500,-0.010000,1.005500,192.000000,127.500000,112.000000,127.500000,88.000000,15.500000,48.000000,0.000000,0.000000,0.000000,1771415888.290023,0.000000
58.000000,13282.211218,13355.077905,8737.073390,10900.431681,8739.599137,31650.427777,-4829.787294,-2981.253324,9958.618576,3081.903229,4739.575653,8181.252561,26528.994921,21996.530532,2074.711272,6171.718976,0.000500,-0.010000,1.005500,192.000000,0.000000,0.000000,0.000000,0.000000,0.000000,0.000000,0.000000,0.000000,0.000000,1771415888.290048,0.000000
60.000000,13307.491041,13380.938873,8775.496039,10938.072018,8803.458071,31678.479216,-4800.126529,-2955.705280,9999.611676,3121.108189,4781.954561,8211.293305,26605.460239,22042.999809,2119.526520,6179.050348,0.000500,-0.010000,1.005500,192.000000,0.000000,0.000000,0.000000,0.000000,0.000000,0.000000,0.000000,0.000000,0.000000,1771415888.290073,0.000000
62.000000,13270.185980,13344.617289,8701.087082,10880.583332,8697.309637,31634.111003,-4844.092410,-2989.590524,9970.263835,3105.149043,4769.549342,8199.178660,26640.150147,22027.442995,2097.621810,6175.809345,0.000500,-0.010000,1.005500,192.000000,0.000000,0.000000,0.000000,0.000000,0.000000,0.000000,0.000000,0.000000,0.000000,1771415888.290098,0.000000
64.000000,13311.179079,13383.934007,8780.793402,10936.172120,8826.458016,31691.152655,-4797.220802,-2952.129001,9982.266722,3104.590250,4768.454107,8197.412872,26575.777122,22021.273914,2094.112586,6179.363272,0.000500,-0.010000,1.005500,192.000000,0.000000,0.000000,0.000000,0.000000,0.000000,0.000000,0.000000,0.000000,0.000000,1771415888.290123,0.000000
66.000000,13269.135448,13341.666858,8731.440751,10891.468631,8726.769236,31632.680492,-4831.731895,-2982.929705,9991.699158,3114.447369,4785.486136,8208.409930,26597.592425,22033.120338,2129.070715,6197.982275,-0.000750,-0.010000,1.001750,192.000000,127.500000,120.000000,127.500000,88.000000,15.500000,24.000000,0.000000,0.000000,0.000000,1771415888.290147,0.000000
68.000000,13272.287044,13344.639640,8734.234719,10894.776689,8754.463047,31634.245114,-4831.396619,-2983.264981,9948.940271,3071.911999,4743.934243,8171.127221,26547.658628,21981.934843,2088.547002,6186.739348,-0.000750,-0.010000,1.001750,192.000000,0.000000,0.000000,0.000000,0.000000,0.000000,0.000000,0.000000,0.000000,0.000000,1771415888.290186,0.000000
70.000000,13308.966256,13381.855295,8772.299739,10939.323716,8805.156804,31665.559908,-4797.958410,-2947.792762,9990.961551,3118.671849,4791.655218,8208.320523,26621.106460,22036.875431,2124.421552,6182.626627,-0.000750,-0.010000,1.001750,192.000000,0.000000,0.000000,0.000000,0.000000,0.000000,0.000000,0.000000,0.000000,0.000000,1771415888.290210,0.000000
72.000000,13265.156837,13337.375323,8699.723625,10879.175172,8693.420433,31610.641671,-4840.493779,-2984.919010,9979.808030,3098.309409,4762.799116,8196.675264,26616.367890,22017.384710,2083.204935,6165.415784,-0.000750,-0.010000,1.001750,192.000000,0.000000,0.000000,0.000000,0.000000,0.000000,0.000000,0.000000,0.000000,0.000000,1771415888.290234,0.000000
74.000000,13311.514355,13386.035071,8778.938207,10943.257623,8813.717522,31671.080789,-4789.420043,-2939.544969,9965.525265,3093.928468,4766.241284,8193.009578,26557.091064,22011.170925,2078.376958,6156.095106,-0.000750,-0.010000,1.001750,192.000000,0.000000,0.000000,0.000000,0.000000,0.000000,0.000000,0.000000,0.000000,0.000000,1771415888.290259,0.000000
76.000000,13285.809849,13361.045821,8739.666192,10904.030312,8713.335838,31638.290779,-4817.896166,-2958.029861,9996.974170,3127.500788,4795.902049,8224.816111,26601.436925,22038.663571,2092.369150,6161.325414,-0.000750,-0.010000,1.001750,192.000000,0.000000,0.000000,127.500000,56.000000,15.500000,24.000000,0.000000,0.000000,0.000000,1771415888.290284,0.000000
78.000000,13293.968236,13368.757173,8746.639937,10907.405425,8741.789608,31644.616323,-4817.896166,-2959.974463,9962.977167,3089.659284,4754.305453,8195.200049,26555.593497,22010.098041,2055.354661,6145.232158,-0.000750,-0.010000,1.001750,192.000000,0.000000,0.000000,0.000000,0.000000,0.000000,0.000000,0.000000,0.000000,0.000000,1771415888.290307,0.000000
80.000000,13314.978876,13390.505420,8776.814792,10947.839731,8797.445452,31669.225594,-4792.437529,-2942.808323,9994.873106,3130.808846,4796.796119,8224.749055,26643.793481,22048.788911,2101.287496,6165.169914,-0.000750,-0.010000,1.001750,192.000000,0.000000,0.000000,0.000000,0.000000,0.000000,0.000000,0.000000,0.000000,0.000000,1771415888.290331,0.000000
82.000000,13277.182076,13350.674611,8706.116224,10895.156669,8683.071576,31620.476439,-4836.649279,-2981.990931,9978.601036,3111.943974,4766.688319,8210.332180,26567.842253,22026.973608,2070.084461,6158.576150,-0.000750,-0.010000,1.001750,192.000000,0.000000,0.000000,0.000000,0.000000,0.000000,0.000000,0.000000,0.000000,0.000000,1771415888.290356,0.000000
84.000000,13310.463823,13382.145868,8769.505771,10948.264414,8801.938153,31669.359704,-4794.516241,-2954.319472,9978.645739,3106.423093,4749.231607,8200.631523,26583.354364,22025.453690,2070.173868,6160.878379,-0.000750,-0.010000,1.001750,192.000000,0.000000,0.000000,0.000000,0.000000,0.000000,0.000000,0.000000,0.000000,0.000000,1771415888.290380,0.000000
86.000000,13286.502753,13360.554082,8726.612774,10911.272277,8719.795492,31643.208163,-4825.316945,-2974.503097,9990.313350,3127.053753,4779.808793,8219.406989,26598.486495,22054.510958,2099.074674,6176.882228,-0.001375,-0.013000,1.001875,192.000000,127.500000,120.000000,127.500000,64.000000,15.500000,40.000000,0.000000,0.000000,0.000000,1771415888.290404,0.000000
88.000000,13275.729212,13351.367515,8721.605983,10909.618248,8734.726457,31643.096404,-4829.183797,-2981.990931,9949.409658,3081.500898,4729.718534,8179.263256,26555.906422,22011.014463,2058.774478,6183.319531,-0.001375,-0.013000,1.001875,192.000000,0.000000,0.000000,0.000000,0.000000,0.000000,0.000000,0.000000,0.000000,0.000000,1771415888.290428,0.000000
90.000000,13304.495907,13380.313025,8760.185094,10940.821283,8801.535821,31677.696905,-4801.959372,-2958.476896,9987.072347,3125.422075,4776.232514,8212.679113,26601.280463,22049.437112,2109.334124,6194.137775,-0.001375,-0.013000,1.001875,192.000000,0.000000,0.000000,0.000000,0.000000,0.000000,0.000000,0.000000,0.000000,0.000000,1771415888.290452,0.000000
92.000000,13258.048982,13334.380190,8691.274666,10882.527933,8687.050186,31618.196561,-4847.981614,-2999.022961,9961.859579,3096.431863,4744.336575,8190.528535,26565.450617,22018.591704,2084.613095,6196.015322,-0.001375,-0.013000,1.001875,192.000000,0.000000,0.000000,0.000000,0.000000,0.000000,0.000000,0.000000,0.000000,0.000000,1771415888.290476,0.000000
94.000000,13312.810756,13384.805725,8773.260864,10949.963146,8811.325885,31684.178911,-4794.046854,-2950.922006,9970.129725,3095.537793,4754.171342,8190.237962,26558.543927,22018.837573,2082.512031,6186.538182,-0.001375,-0.013000,1.001875,192.000000,0.000000,0.000000,0.000000,0.000000,0.000000,0.000000,0.000000,0.000000,0.000000,1771415888.290501,0.000000
96.000000,13286.748622,13355.860216,8720.376637,10905.460823,8743.421286,31644.392806,-4824.400523,-2974.056062,9988.525210,3123.611584,4788.101290,8215.428378,26585.656594,22051.940507,2102.874470,6184.504173,0.001313,-0.014500,1.005937,192.000000,0.000000,16.000000,127.500000,64.000000,15.500000,72.000000,0.000000,0.000000,0.000000,1771415888.290526,0.000000
98.000000,13285.027538,13360.442324,8725.472835,10913.462748,8753.546626,31643.655198,-4824.177006,-2976.335940,9954.707021,3076.516459,4739.888577,8177.676282,26553.514785,21994.384765,2062.864848,6175.205848,0.001313,-0.014500,1.005937,192.000000,0.000000,0.000000,0.000000,0.000000,0.000000,0.000000,0.000000,0.000000,0.000000,1771415888.290550,0.000000
100.000000,13309.346236,13387.890266,8765.080126,10946.386867,8800.284123,31679.797969,-4795.946753,-2952.844257,9998.829365,3123.589232,4782.289837,8216.993000,26630.963580,22045.123225,2107.322467,6177.776298,0.001313,-0.014500,1.005937,192.000000,0.000000,0.000000,0.000000,0.000000,0.000000,0.000000,0.000000,0.000000,0.000000,1771415888.290575,0.000000
102.000000,13269.224855,13347.992402,8701.154137,10892.340349,8683.540962,31617.146029,-4841.030221,-2985.589562,9962.530132,3098.354113,4762.463839,8201.659703,26550.743169,22014.926018,2076.566467,6172.367176,0.001313,-0.014500,1.005937,192.000000,0.000000,0.000000,0.000000,0.000000,0.000000,0.000000,0.000000,0.000000,0.000000,1771415888.290599,0.000000
104.000000,13306.596971,13383.755193,8774.110231,10947.504455,8807.749606,31667.593916,-4792.728101,-2949.960881,9963.178332,3095.850718,4764.654310,8199.715102,26545.155233,22016.065957,2070.687958,6166.555723,0.001313,-0.014500,1.005937,192.000000,0.000000,0.000000,0.000000,0.000000,0.000000,0.000000,0.000000,0.000000,0.000000,1771415888.290623,0.000000
