Sample_index,EXG Channel 0,EXG Channel 1,EXG Channel 2,EXG Channel 3,EXG Channel 4,EXG Channel 5,EXG Channel 6,EXG Channel 7,EXG Channel 8,EXG Channel 9,EXG Channel 10,EXG Channel 11,EXG Channel 12,EXG Channel 13,EXG Channel 14,EXG Channel 15,Accel Channel 0,Accel Channel 1,Accel Channel 2,Not Used,Digital Channel 0 (D11),Digital Channel 1 (D12),Digital Channel 2 (D13),Digital Channel 3 (D17),Not Used,Digital Channel 4 (D18),Analog Channel 0,Analog Channel 1,Analog Channel 2,Timestamp,Marker Channel
90.000000,11716.426816,10418.706884,-25265.696676,-4249.826580,-15454.197282,16888.754593,-12413.488318,-19720.452395,11729.480234,14118.971124,4090.101014,676.363787,8913.003971,15655.564148,-24615.752651,-8574.039766,-0.006000,-0.010000,1.006000,192.000000,0.000000,0.000000,0.000000,0.000000,0.000000,0.000000,0.000000,0.000000,0.000000,1770371748.053966,101.000000
92.000000,11706.726158,10412.761320,-25259.996982,-4256.286234,-15464.076753,16878.115163,-12413.600077,-19721.413520,11734.643487,14106.230629,4091.531526,675.246200,8912.132253,15635.201709,-24598.005366,-8561.366327,-0.006000,-0.010000,1.006000,192.000000,0.000000,0.000000,0.000000,0.000000,0.000000,0.000000,0.000000,0.000000,0.000000,1770371748.054030,0.000000
94.000000,11682.429812,10387.906180,-25285.209749,-4265.428098,-15482.583998,16867.721601,-12434.476606,-19743.564098,11707.061435,14086.426984,4079.796860,655.464906,8880.437479,15615.532174,-24605.292035,-8565.032013,-0.006000,-0.010000,1.006000,192.000000,0.000000,0.000000,127.500000,80.000000,15.500000,80.000000,0.000000,0.000000,0.000000,1770371748.054078,0.000000
96.000000,11700.735891,10408.939172,-25273.877415,-4256.420345,-15473.442134,16879.344509,-12416.192879,-19721.726444,11697.226667,14086.047004,4077.852258,657.610674,8877.218828,15620.293095,-24604.934407,-8556.761868,-0.006000,-0.010000,1.006000,192.000000,0.000000,0.000000,0.000000,0.000000,0.000000,0.000000,0.000000,0.000000,0.000000,1770371748.054125,0.000000
98.000000,11700.400615,10407.575715,-25286.684965,-4253.201694,-15469.731744,16885.155962,-12424.932411,-19730.890659,11717.387941,14103.503716,4087.061177,674.352130,8883.879648,15638.867395,-24590.584587,-8534.030144,-0.006000,-0.010000,1.006000,192.000000,0.000000,0.000000,0.000000,0.000000,0.000000,0.000000,0.000000,0.000000,0.000000,1770371748.054172,0.000000
100.000000,11703.127528,10409.922649,-25289.657747,-4253.425211,-15466.915425,16889.693366,-12426.832310,-19738.222031,11705.094481,14099.502754,4073.739537,661.164601,8878.358767,15624.316409,-24611.483468,-8536.600594,-0.006000,-0.010000,1.006000,192.000000,0.000000,0.000000,0.000000,0.000000,0.000000,0.000000,0.000000,0.000000,0.000000,1770371748.054203,0.000000
102.000000,11695.282065,10406.659294,-25283.958052,-4256.353290,-15460.455771,16885.446535,-12422.607830,-19741.038351,11719.712522,14111.527993,4073.068985,671.848735,8884.438441,15645.237642,-24596.306634,-8526.139978,-0.006000,-0.010000,1.006000,192.000000,0.000000,0.000000,0.000000,0.000000,0.000000,0.000000,0.000000,0.000000,0.000000,1770371748.054227,0.000000
104.000000,11666.850646,10378.652558,-25306.533314,-4275.285217,-15473.933872,16864.413543,-12447.485321,-19770.788523,11683.927379,14087.410460,4050.113744,644.780772,8862.153752,15624.562278,-24608.488334,-8553.833789,-0.004000,-0.010000,1.005000,192.000000,127.500000,120.000000,127.500000,88.000000,15.500000,48.000000,0.000000,0.000000,0.000000,1770371748.054250,0.000000
106.000000,11685.335539,10400.244343,-25288.763677,-4279.576752,-15473.777410,16866.872235,-12430.699161,-19746.313363,11677.914760,14081.978986,4048.347956,637.136476,8874.737784,15625.143424,-24607.907189,-8572.832772,-0.004000,-0.010000,1.005000,192.000000,0.000000,0.000000,0.000000,0.000000,0.000000,0.000000,0.000000,0.000000,0.000000,1770371748.054274,0.000000
108.000000,11693.784498,10407.553364,-25294.597482,-4272.468897,-15476.973710,16867.051049,-12433.537833,-19740.524261,11697.807812,14104.934228,4064.709433,663.019796,8880.035148,15639.917927,-24594.116163,-8572.855124,-0.004000,-0.010000,1.005000,192.000000,0.000000,0.000000,0.000000,0.000000,0.000000,0.000000,0.000000,0.000000,0.000000,1770371748.054297,0.000000
110.000000,11711.531784,10423.668971,-25287.735496,-4252.799362,-15474.179742,16873.287186,-12420.082083,-19720.742967,11684.061490,14101.223838,4067.458697,660.561104,8854.218883,15627.512709,-24617.272570,-8589.127194,-0.004000,-0.010000,1.005000,192.000000,0.000000,0.000000,0.000000,0.000000,0.000000,0.000000,0.000000,0.000000,0.000000,1770371748.054320,0.000000
112.000000,11731.782464,10445.305460,-25271.485778,-4244.149237,-15473.442134,16882.786677,-12402.982998,-19701.162839,11713.588144,14126.347199,4091.173898,693.351113,8877.241180,15651.205558,-24602.632177,-8563.534446,-0.004000,-0.010000,1.005000,192.000000,0.000000,0.000000,0.000000,0.000000,0.000000,0.000000,0.000000,0.000000,0.000000,1770371748.054343,0.000000
114.000000,11715.041007,10425.144187,-25288.696622,-4250.385374,-15490.049480,16879.612730,-12420.596173,-19726.062682,11706.614400,14116.244211,4085.183631,683.002255,8876.905903,15631.916002,-24620.088890,-8562.685080,0.000000,-0.010000,1.006500,192.000000,0.000000,16.000000,127.500000,88.000000,15.500000,64.000000,0.000000,0.000000,0.000000,1770371748.054366,0.000000
116.000000,11715.286877,10424.361876,-25276.000831,-4247.233778,-15491.457640,16881.937311,-12411.789586,-19724.565116,11706.636751,14103.481365,4075.930008,671.513459,8869.418069,15641.124921,-24626.436785,-8550.637490,0.000000,-0.010000,1.006500,192.000000,0.000000,0.000000,0.000000,0.000000,0.000000,0.000000,0.000000,0.000000,0.000000,1770371748.054390,0.000000
118.000000,11678.674719,10392.756509,-25297.816133,-4266.456278,-15510.635437,16860.144360,-12431.168548,-19753.421218,11700.735891,14097.804022,4065.178819,664.584418,8867.384060,15635.872261,-24621.273532,-8539.774542,0.000000,-0.010000,1.006500,192.000000,0.000000,0.000000,0.000000,0.000000,0.000000,0.000000,0.000000,0.000000,0.000000,1770371748.054413,0.000000
120.000000,11665.420135,10379.837201,-25304.186380,-4277.609799,-15509.093166,16854.444665,-12434.275440,-19764.038296,11658.781667,14065.304585,4039.273147,629.805104,8841.612499,15605.138612,-24643.714683,-8557.275958,0.000000,-0.010000,1.006500,192.000000,0.000000,0.000000,0.000000,0.000000,0.000000,0.000000,0.000000,0.000000,0.000000,1770371748.054436,0.000000
122.000000,11673.466763,10387.257980,-25292.138790,-4278.369758,-15497.984349,16856.210453,-12422.451368,-19752.102465,11674.897274,14071.227797,4045.218712,638.991670,8860.499723,15617.879107,-24616.199686,-8548.491722,0.000000,-0.010000,1.006500,192.000000,0.000000,0.000000,0.000000,0.000000,0.000000,0.000000,0.000000,0.000000,0.000000,1770371748.054459,0.000000
124.000000,11656.859417,10370.248302,-25313.395299,-4281.029616,-15497.291445,16851.762456,-12439.416342,-19769.782695,11663.363774,14062.845893,4038.356726,630.788580,8837.767999,15606.591476,-24615.998520,-8560.829885,-0.002000,-0.009000,1.005250,192.000000,127.500000,112.000000,127.500000,96.000000,15.500000,48.000000,0.000000,0.000000,0.000000,1770371748.054483,0.000000
126.000000,11670.315167,10383.391128,-25302.934683,-4277.565095,-15498.252570,16856.143398,-12427.480510,-19757.444532,11657.105286,14057.213254,4034.489874,628.084019,8834.147016,15602.255237,-24616.534962,-8562.372155,-0.002000,-0.009000,1.005250,192.000000,0.000000,0.000000,0.000000,0.000000,0.000000,0.000000,0.000000,0.000000,0.000000,1770371748.054506,0.000000
128.000000,11663.810809,10373.824581,-25312.925912,-4281.700168,-15502.231181,16856.724543,-12439.215176,-19770.922634,11673.913798,14067.159780,4038.021450,635.527150,8838.393848,15603.506935,-24609.360052,-8550.257510,-0.002000,-0.009000,1.005250,192.000000,0.000000,0.000000,0.000000,0.000000,0.000000,0.000000,0.000000,0.000000,0.000000,1770371748.054529,0.000000
130.000000,11674.561998,10384.866343,-25305.147505,-4274.659368,-15497.291445,16876.170561,-12436.778836,-19763.904186,11654.803056,14059.984870,4032.120589,622.250214,8820.490100,15601.472926,-24632.047073,-8558.371193,-0.002000,-0.009000,1.005250,192.000000,0.000000,0.000000,0.000000,0.000000,0.000000,0.000000,0.000000,0.000000,0.000000,1770371748.054552,0.000000
132.000000,11694.052719,10409.542669,-25284.695659,-4265.651615,-15478.136000,16896.644759,-12418.115129,-19735.785691,11685.357891,14092.193734,4053.578264,653.721470,8847.133380,15637.638049,-24612.712814,-8538.411085,-0.002000,-0.009000,1.005250,192.000000,0.000000,0.000000,0.000000,0.000000,0.000000,0.000000,0.000000,0.000000,0.000000,1770371748.054576,0.000000
134.000000,11691.102289,10402.501869,-25295.133924,-4271.619531,-15486.830829,16892.263817,-12432.330839,-19740.703075,11684.821449,14096.552324,4063.681252,653.430897,8870.781525,15639.627354,-24622.480526,-8546.480065,-0.003000,-0.010500,1.003625,192.000000,127.500000,112.000000,127.500000,80.000000,15.500000,40.000000,0.000000,0.000000,0.000000,1770371748.054599,0.000000
136.000000,11707.799042,10420.517376,-25267.976554,-4260.018976,-15480.572341,16887.882875,-12412.974228,-19719.223049,11693.605684,14103.213144,4077.673444,662.282188,8868.211075,15633.502976,-24618.457212,-8550.279862,-0.003000,-0.010500,1.003625,192.000000,0.000000,0.000000,0.000000,0.000000,0.000000,0.000000,0.000000,0.000000,0.000000,1770371748.054622,0.000000
138.000000,11704.289818,10412.783672,-25276.581976,-4261.114211,-15488.238989,16869.755610,-12418.495109,-19724.252191,11710.257734,14109.225763,4088.849317,675.402662,8874.447212,15636.140482,-24603.861523,-8546.457713,-0.003000,-0.010500,1.003625,192.000000,0.000000,0.000000,0.000000,0.000000,0.000000,0.000000,0.000000,0.000000,0.000000,1770371748.054645,0.000000
140.000000,11709.251906,10412.582506,-25281.566415,-4255.280406,-15491.614102,16872.236654,-12417.064597,-19721.391168,11694.969141,14094.942998,4085.250686,661.477525,8871.116802,15636.341648,-24631.845907,-8564.517923,-0.003000,-0.010500,1.003625,192.000000,0.000000,0.000000,0.000000,0.000000,0.000000,0.000000,0.000000,0.000000,0.000000,1770371748.054669,0.000000
142.000000,11709.117795,10416.829338,-25276.693735,-4244.953900,-15493.536352,16874.203607,-12406.782795,-19715.602066,11712.068225,14106.521202,4091.598581,675.760290,8872.033223,15634.374694,-24616.087927,-8540.556853,-0.003000,-0.010500,1.003625,192.000000,0.000000,0.000000,0.000000,0.000000,0.000000,0.000000,0.000000,0.000000,0.000000,1770371748.054692,0.000000
144.000000,11686.319016,10395.259904,-25302.420593,-4253.805191,-15496.106803,16874.695346,-12428.575746,-19741.753607,11686.989568,14092.081975,4071.303197,658.571799,8868.769868,15631.513671,-24625.833288,-8537.606423,-0.003000,-0.010500,1.003625,192.000000,0.000000,0.000000,127.500000,72.000000,15.500000,56.000000,0.000000,0.000000,0.000000,1770371748.054715,0.000000
146.000000,11694.410347,10404.938210,-25281.432305,-4259.035499,-15480.393527,16877.422259,-12415.410568,-19730.533031,11687.749527,14091.411423,4064.284750,653.430897,8847.647470,15630.820767,-24618.434861,-8539.103989,-0.003000,-0.010500,1.003625,192.000000,0.000000,0.000000,0.000000,0.000000,0.000000,0.000000,0.000000,0.000000,0.000000,1770371748.054739,0.000000
148.000000,11674.025556,10383.681701,-25294.798648,-4267.439755,-15481.377003,16857.730372,-12430.810920,-19747.855633,11700.892353,14091.187905,4068.308064,659.287054,8863.248988,15629.949049,-24595.077288,-8542.210882,-0.003000,-0.010500,1.003625,192.000000,0.000000,0.000000,0.000000,0.000000,0.000000,0.000000,0.000000,0.000000,0.000000,1770371748.054762,0.000000
150.000000,11669.577559,10378.630206,-25294.373965,-4273.385319,-15483.969806,16854.757590,-12433.090798,-19751.230747,11668.437620,14066.086896,4052.505380,633.984880,8841.679554,15605.093909,-24609.136535,-8568.675347,-0.003000,-0.010500,1.003625,192.000000,0.000000,0.000000,0.000000,0.000000,0.000000,0.000000,0.000000,0.000000,0.000000,1770371748.054785,0.000000
152.000000,11676.037213,10386.788593,-25280.225310,-4271.910104,-15482.136963,16858.937366,-12419.903269,-19741.150110,11689.805888,14082.761298,4063.390680,648.602921,8875.721261,15614.347531,-24585.019003,-8556.359536,-0.003000,-0.010500,1.003625,192.000000,0.000000,0.000000,0.000000,0.000000,0.000000,0.000000,0.000000,0.000000,0.000000,1770371748.054809,0.000000
154.000000,11662.894388,10374.383375,-25303.873456,-4271.887752,-15494.072794,16857.797427,-12437.091760,-19757.399828,11671.790382,14071.563074,4050.784296,636.287109,8854.732973,15617.566182,-24603.548599,-8562.081583,-0.003000,-0.010500,1.003625,192.000000,0.000000,0.000000,127.500000,80.000000,15.500000,88.000000,0.000000,0.000000,0.000000,1770371748.054875,0.000000
156.000000,11687.794231,10400.914896,-25287.646090,-4255.727441,-15486.048518,16884.619520,-12417.779853,-19731.069473,11673.153838,14082.828353,4054.472334,645.205455,8847.803932,15624.875203,-24612.891628,-8548.737591,-0.003000,-0.010500,1.003625,192.000000,0.000000,0.000000,0.000000,0.000000,0.000000,0.000000,0.000000,0.000000,0.000000,1770371748.054899,0.000000
158.000000,11683.547399,10391.996550,-25300.028956,-4257.470877,-15492.217599,16884.038375,-12428.128711,-19742.044180,11696.556115,14103.503716,4066.631683,665.277322,8860.455020,15637.302773,-24603.034509,-8524.485949,-0.003000,-0.010500,1.003625,192.000000,0.000000,0.000000,0.000000,0.000000,0.000000,0.000000,0.000000,0.000000,0.000000,1770371748.054923,0.000000
160.000000,11679.099402,10388.509677,-25301.280654,-4260.868342,-15490.228294,16882.741974,-12430.386237,-19747.498005,11675.545475,14085.845838,4056.528694,643.529075,8848.273319,15621.231868,-24627.174393,-8539.282803,-0.003000,-0.010500,1.003625,192.000000,0.000000,0.000000,0.000000,0.000000,0.000000,0.000000,0.000000,0.000000,0.000000,1770371748.054946,0.000000
162.000000,11682.273350,10396.958637,-25286.908482,-4263.304682,-15495.972692,16872.214302,-12416.483452,-19733.125834,11692.689263,14093.736004,4067.034014,656.247217,8876.570627,15632.161871,-24615.037395,-8534.946565,-0.003000,-0.010500,1.003625,192.000000,0.000000,0.000000,0.000000,0.000000,0.000000,0.000000,0.000000,0.000000,0.000000,1770371748.054975,0.000000
164.000000,11669.912835,10386.050986,-25302.264130,-4266.232761,-15512.892963,16850.533110,-12427.055827,-19743.474691,11674.226722,14084.527085,4067.235180,648.222941,8835.801045,15614.101662,-24633.030550,-8562.260397,-0.003000,-0.010500,1.003625,192.000000,0.000000,0.000000,0.000000,0.000000,0.000000,0.000000,0.000000,0.000000,0.000000,1770371748.054985,0.000000
166.000000,11688.576542,10401.943076,-25283.846293,-4265.629264,-15509.450794,16851.583642,-12405.307580,-19719.893601,11675.545475,14083.118925,4072.063157,653.497953,8833.655278,15609.832479,-24637.009160,-8574.263284,-0.002000,-0.012000,1.006000,192.000000,127.500000,120.000000,127.500000,80.000000,15.500000,56.000000,0.000000,0.000000,0.000000,1770371748.054996,0.000000
168.000000,11675.657234,10388.666140,-25297.592616,-4255.146295,-15517.743292,16832.227031,-12416.930487,-19733.215241,11693.650388,14096.306455,4080.668578,669.099470,8845.836979,15618.750825,-24619.530096,-8568.228313,-0.002000,-0.012000,1.006000,192.000000,0.000000,0.000000,0.000000,0.000000,0.000000,0.000000,0.000000,0.000000,0.000000,1770371748.055007,0.000000
170.000000,11665.397783,10382.139430,-25298.531389,-4263.461144,-15513.138832,16834.104578,-12423.032513,-19743.117063,11658.379335,14074.982890,4059.657938,644.132572,8837.678592,15602.411700,-24635.176317,-8587.093185,-0.002000,-0.012000,1.006000,192.000000,0.000000,0.000000,0.000000,0.000000,0.000000,0.000000,0.000000,0.000000,0.000000,1770371748.055017,0.000000
172.000000,11668.057641,10386.475669,-25280.113552,-4269.250246,-15490.228294,16849.057895,-12415.857603,-19740.412502,11674.293777,14086.516391,4061.982520,653.944988,8851.715487,15623.489395,-24602.431011,-8571.961054,-0.002000,-0.012000,1.006000,192.000000,0.000000,0.000000,0.000000,0.000000,0.000000,0.000000,0.000000,0.000000,0.000000,1770371748.055028,0.000000
174.000000,11652.769047,10372.371718,-25297.369098,-4259.214313,-15482.092259,16860.278471,-12435.236565,-19762.071343,11658.714611,14075.139353,4050.761944,638.723450,8847.446304,15614.861621,-24599.771154,-8569.032975,-0.002000,-0.012000,1.006000,192.000000,0.000000,0.000000,0.000000,0.000000,0.000000,0.000000,0.000000,0.000000,0.000000,1770371748.055038,0.000000
176.000000,11662.447353,10383.391128,-25282.549892,-4257.202656,-15481.756983,16866.291090,-12419.277420,-19745.396941,11656.166513,14079.006204,4050.091392,639.773982,8848.407429,15620.628371,-24593.847942,-8561.791010,0.002000,-0.008000,1.012000,192.000000,0.000000,8.000000,127.500000,96.000000,15.500000,80.000000,0.000000,0.000000,0.000000,1770371748.055049,0.000000
178.000000,11653.372544,10374.741003,-25301.772392,-4263.483496,-15504.846335,16857.864482,-12427.391103,-19753.063590,11667.141219,14086.918722,4056.260473,649.720508,8854.598862,15623.668209,-24589.511703,-8546.792990,0.002000,-0.008000,1.012000,192.000000,0.000000,0.000000,0.000000,0.000000,0.000000,0.000000,0.000000,0.000000,0.000000,1770371748.055060,0.000000
180.000000,11655.361850,10372.885808,-25313.596465,-4265.361043,-15513.295294,16870.426163,-12430.565051,-19755.589337,11638.240413,14068.702050,4040.837770,630.721525,8839.913766,15602.903438,-24624.782756,-8551.553911,0.002000,-0.008000,1.012000,192.000000,0.000000,0.000000,0.000000,0.000000,0.000000,0.000000,0.000000,0.000000,0.000000,1770371748.055070,0.000000
182.000000,11668.527027,10388.084994,-25301.370061,-4260.354252,-15508.064986,16876.371727,-12419.053903,-19743.050008,11660.994489,14085.041175,4052.930063,648.245293,8825.742760,15619.734302,-24614.858581,-8526.877585,0.002000,-0.008000,1.012000,192.000000,0.000000,0.000000,0.000000,0.000000,0.000000,0.000000,0.000000,0.000000,0.000000,1770371748.055081,0.000000
184.000000,11659.832199,10374.584541,-25321.151354,-4261.874171,-15501.471222,16877.154038,-12438.455217,-19763.546558,11658.804018,14083.834181,4045.777505,642.299729,8837.924461,15617.566182,-24625.140384,-8526.721123,0.002000,-0.008000,1.012000,192.000000,0.000000,0.000000,0.000000,0.000000,0.000000,0.000000,0.000000,0.000000,0.000000,1770371748.055092,0.000000
186.000000,11673.466763,10392.175364,-25301.750040,-4262.790592,-15499.996006,16877.176389,-12421.736112,-19748.190909,11662.268539,14087.343405,4044.615214,643.082040,8851.536673,15629.613773,-24627.330855,-8531.213824,0.002000,-0.012000,1.014000,192.000000,0.000000,8.000000,127.500000,80.000000,15.500000,88.000000,0.000000,0.000000,0.000000,1770371748.055102,0.000000
188.000000,11661.285062,10383.636997,-25308.209694,-4264.265807,-15507.059158,16862.223072,-12427.346400,-19755.187005,11667.767068,14098.675740,4049.890226,654.503781,8846.261662,15634.106473,-24616.512610,-8539.103989,0.002000,-0.012000,1.014000,192.000000,0.000000,0.000000,0.000000,0.000000,0.000000,0.000000,0.000000,0.000000,0.000000,1770371748.055113,0.000000
190.000000,11670.918664,10391.504811,-25305.840409,-4266.813906,-15506.656826,16860.479636,-12424.820653,-19750.269622,11649.326879,14088.170420,4045.039898,640.556293,8838.170330,15614.079310,-24636.740939,-8575.202057,0.002000,-0.012000,1.014000,192.000000,0.000000,0.000000,0.000000,0.000000,0.000000,0.000000,0.000000,0.000000,0.000000,1770371748.055124,0.000000
192.000000,11685.514353,10406.636942,-25284.047459,-4260.398955,-15498.699605,16854.869348,-12408.816804,-19732.343523,11679.702899,14113.494946,4060.552008,664.919694,8873.843714,15633.950011,-24613.226904,-8577.146659,0.002000,-0.012000,1.014000,192.000000,0.000000,0.000000,0.000000,0.000000,0.000000,0.000000,0.000000,0.000000,0.000000,1770371748.055134,0.000000
194.000000,11668.728193,10386.810945,-25298.419630,-4266.903313,-15506.813289,16840.452473,-12427.949897,-19750.694305,11667.454143,14103.950751,4056.081659,652.715642,8856.476409,15631.580726,-24617.764308,-8593.597542,0.002000,-0.012000,1.014000,192.000000,0.000000,0.000000,0.000000,0.000000,0.000000,0.000000,0.000000,0.000000,0.000000,1770371748.055145,0.000000
196.000000,11675.165495,10398.366797,-25277.766618,-4257.940264,-15501.694739,16840.675991,-12415.388216,-19737.260906,11664.771934,14102.967275,4057.802744,651.776868,8846.440476,15614.369883,-24614.411547,-8595.408034,0.002000,-0.010000,1.002000,192.000000,0.000000,8.000000,127.500000,88.000000,15.500000,40.000000,0.000000,0.000000,0.000000,1770371748.055156,0.000000
198.000000,11661.799152,10380.463049,-25289.881264,-4265.383394,-15509.942533,16838.954906,-12428.151063,-19750.224918,11676.327786,14103.459013,4062.809534,657.856543,8857.124610,15618.393197,-24600.151134,-8576.967845,0.002000,-0.010000,1.002000,192.000000,0.000000,0.000000,0.000000,0.000000,0.000000,0.000000,0.000000,0.000000,0.000000,1770371748.055166,0.000000
200.000000,11653.931338,10370.248302,-25296.095049,-4263.796421,-15515.888097,16844.051104,-12430.810920,-19753.935308,11648.924547,14078.067431,4049.599653,633.113162,8837.924461,15610.860659,-24622.122898,-8578.510115,0.002000,-0.010000,1.002000,192.000000,0.000000,0.000000,0.000000,0.000000,0.000000,0.000000,0.000000,0.000000,0.000000,1770371748.055177,0.000000
202.000000,11652.366716,10370.538875,-25291.736459,-4262.030633,-15518.056216,16845.503967,-12420.238545,-19744.860499,11653.908986,14087.701033,4054.874665,646.077173,8837.902109,15609.564258,-24609.047128,-8557.030089,0.002000,-0.010000,1.002000,192.000000,0.000000,0.000000,0.000000,0.000000,0.000000,0.000000,0.000000,0.000000,0.000000,1770371748.055188,0.000000
204.000000,11630.417303,10350.377601,-25326.024035,-4277.654502,-15528.203908,16837.278526,-12442.545586,-19770.676764,11635.312335,14073.217103,4039.317851,628.754572,8817.003228,15582.228074,-24628.269628,-8565.747269,0.002000,-0.010000,1.002000,192.000000,0.000000,0.000000,0.000000,0.000000,0.000000,0.000000,0.000000,0.000000,0.000000,1770371748.055198,0.000000
206.000000,11637.547509,10359.363003,-25317.597427,-4279.956732,-15532.562498,16839.491348,-12426.631144,-19757.086904,11633.367733,14067.562111,4034.378115,624.038353,8823.351124,15593.381595,-24638.909058,-8568.027147,0.002000,-0.010000,1.002000,192.000000,0.000000,0.000000,127.500000,72.000000,15.500000,72.000000,0.000000,0.000000,0.000000,1770371748.055209,0.000000
208.000000,11627.019838,10347.449523,-25328.192154,-4286.103462,-15539.692705,16839.178424,-12435.862414,-19765.334697,11639.693277,14073.597082,4038.580243,632.733182,8838.639717,15587.480734,-24632.136480,-8559.891112,0.002000,-0.010000,1.002000,192.000000,0.000000,0.000000,0.000000,0.000000,0.000000,0.000000,0.000000,0.000000,0.000000,1770371748.055220,0.000000
210.000000,11633.211271,10356.412572,-25326.627532,-4280.359063,-15539.536242,16848.968488,-12431.682638,-19755.119950,11622.348323,14065.595158,4034.311060,622.451380,8806.028522,15575.544903,-24654.555280,-8573.100993,0.002000,-0.010000,1.002000,192.000000,0.000000,0.000000,0.000000,0.000000,0.000000,0.000000,0.000000,0.000000,0.000000,1770371748.535034,0.000000
212.000000,11650.153893,10375.992701,-25307.203866,-4264.556380,-15541.682010,16859.809084,-12411.677827,-19731.538860,11645.325916,14090.964388,4053.153581,650.882799,8823.529938,15618.326142,-24642.373579,-8554.884321,0.002000,-0.010000,1.002000,192.000000,0.000000,0.000000,0.000000,0.000000,0.000000,0.000000,0.000000,0.000000,0.000000,1770371748.535090,0.000000
214.000000,11640.877919,10366.962596,-25321.039596,-4265.830429,-15546.822911,16860.837264,-12428.285173,-19747.945040,11636.876957,14087.410460,4050.717241,648.267644,8813.806929,15614.459290,-24655.739922,-8558.840580,0.002000,-0.010000,1.002000,192.000000,0.000000,0.000000,0.000000,0.000000,0.000000,0.000000,0.000000,0.000000,0.000000,1770371748.535136,0.000000
216.000000,11650.712687,10377.356157,-25296.452677,-4257.001490,-15536.406998,16869.934424,-12412.281324,-19733.706979,11639.670925,14093.870115,4053.332395,651.061612,8818.120816,15613.833441,-24655.583460,-8555.666632,0.002000,-0.008000,1.004000,192.000000,0.000000,8.000000,127.500000,96.000000,15.500000,48.000000,0.000000,0.000000,0.000000,1770371748.535178,0.000000
218.000000,11645.929414,10370.114192,-25298.777258,-4260.264845,-15526.125196,16866.335793,-12421.847871,-19743.228822,11662.626167,14107.772900,4063.256569,661.321063,8838.595013,15635.604040,-24631.130651,-8539.931004,0.002000,-0.008000,1.004000,192.000000,0.000000,0.000000,0.000000,0.000000,0.000000,0.000000,0.000000,0.000000,0.000000,1770371748.535240,0.000000
220.000000,11647.583443,10373.332843,-25295.379793,-4256.800325,-15512.244762,16872.683689,-12422.071388,-19743.206470,11642.509597,14091.187905,4052.773601,642.165618,8831.665973,15619.600191,-24641.099529,-8553.029126,0.002000,-0.008000,1.004000,192.000000,0.000000,0.000000,0.000000,0.000000,0.000000,0.000000,0.000000,0.000000,0.000000,1770371748.535281,0.000000
222.000000,11655.294794,10383.189962,-25277.431342,-4247.569054,-15490.272998,16877.332852,-12413.354208,-19734.623401,11663.989623,14107.772900,4065.558799,659.532924,8851.022583,15635.089950,-24612.444593,-8529.001001,0.002000,-0.008000,1.004000,192.000000,0.000000,0.000000,0.000000,0.000000,0.000000,0.000000,0.000000,0.000000,0.000000,1770371748.535311,0.000000
224.000000,11639.425056,10362.425192,-25300.878322,-4259.437830,-15491.748213,16869.845017,-12437.851720,-19758.092732,11651.763219,14090.807926,4056.372232,641.048031,8840.941947,15630.261973,-24608.622445,-8530.833844,0.002000,-0.008000,1.004000,192.000000,0.000000,0.000000,0.000000,0.000000,0.000000,0.000000,0.000000,0.000000,0.000000,1770371748.535324,0.000000
226.000000,11642.196672,10365.152105,-25296.407973,-4261.538894,-15502.767623,16867.185160,-12424.731246,-19748.235613,11642.375486,14082.224856,4049.957281,636.264758,8841.053705,15621.075406,-24615.104451,-8531.660859,0.006000,-0.010000,1.002000,192.000000,0.000000,24.000000,127.500000,88.000000,15.500000,40.000000,0.000000,0.000000,0.000000,1770371748.535338,0.000000
228.000000,11626.393989,10353.529197,-25320.749023,-4264.243455,-15527.734521,16861.105485,-12438.321106,-19765.714677,11644.208329,14087.678681,4049.867874,643.126743,8841.791313,15629.278496,-24611.103488,-8519.099178,0.006000,-0.010000,1.002000,192.000000,0.000000,0.000000,0.000000,0.000000,0.000000,0.000000,0.000000,0.000000,0.000000,1770371748.535351,0.000000
230.000000,11626.572803,10350.958747,-25330.919067,-4268.423232,-15542.464321,16852.678877,-12442.031496,-19773.090753,11613.586439,14065.818675,4027.538482,615.455284,8806.788481,15603.931618,-24647.156852,-8527.816359,0.006000,-0.010000,1.002000,192.000000,0.000000,0.000000,0.000000,0.000000,0.000000,0.000000,0.000000,0.000000,0.000000,1770371748.535364,0.000000
232.000000,11634.150044,10362.671061,-25317.955055,-4268.646749,-15544.811254,16851.494235,-12425.580612,-19759.031505,11632.272498,14080.526123,4034.534578,633.493141,8816.913821,15600.690615,-24642.842965,-8514.852347,0.006000,-0.010000,1.002000,192.000000,0.000000,0.000000,0.000000,0.000000,0.000000,0.000000,0.000000,0.000000,0.000000,1770371748.535377,0.000000
234.000000,11635.044114,10359.765334,-25326.158145,-4277.766261,-15547.202891,16842.084151,-12437.292926,-19766.049953,11625.857547,14075.854609,4035.763924,627.011135,8811.057664,15598.701310,-24658.288021,-8534.186606,0.006000,-0.010000,1.002000,192.000000,0.000000,0.000000,0.000000,0.000000,0.000000,0.000000,0.000000,0.000000,0.000000,1770371748.535390,0.000000
236.000000,11658.602853,10385.559247,-25297.950244,-4270.971331,-15536.004667,16842.285316,-12413.220097,-19736.880927,11639.648573,14078.894446,4051.208979,634.677784,8821.384170,15591.012310,-24659.025628,-8556.091315,0.008000,-0.011000,1.005000,192.000000,0.000000,40.000000,127.500000,80.000000,15.500000,64.000000,0.000000,0.000000,0.000000,1770371748.535403,0.000000
238.000000,11662.156780,10389.828430,-25301.124191,-4273.787650,-15529.366199,16832.070569,-12418.562164,-19737.260906,11663.699050,14096.798193,4069.157430,659.398813,8838.662069,15604.132784,-24635.980980,-8555.532522,0.008000,-0.011000,1.005000,192.000000,0.000000,0.000000,0.000000,0.000000,0.000000,0.000000,0.000000,0.000000,0.000000,1770371748.535416,0.000000
240.000000,11671.499809,10400.311399,-25296.005642,-4268.624397,-15522.526565,16842.687648,-12418.025722,-19736.433892,11646.555262,14086.225818,4060.864933,646.390098,8829.587260,15597.695482,-24651.962477,-8575.067946,0.008000,-0.011000,1.005000,192.000000,0.000000,0.000000,0.000000,0.000000,0.000000,0.000000,0.000000,0.000000,0.000000,1770371748.535429,0.000000
242.000000,11688.196562,10418.840995,-25272.513959,-4255.906255,-15504.019320,16856.165750,-12401.440728,-19716.764357,11669.309338,14113.696112,4074.588904,668.898305,8841.567795,15618.907287,-24624.268666,-8558.684118,0.008000,-0.011000,1.005000,192.000000,0.000000,0.000000,0.000000,0.000000,0.000000,0.000000,0.000000,0.000000,0.000000,1770371748.535442,0.000000
244.000000,11679.233513,10407.039274,-25284.047459,-4262.164743,-15509.540201,16849.683744,-12419.478586,-19732.410578,11663.252016,14110.320998,4073.024282,662.259836,8842.864197,15623.154118,-24627.040282,-8567.691871,0.008000,-0.011000,1.005000,192.000000,0.000000,0.000000,0.000000,0.000000,0.000000,0.000000,0.000000,0.000000,0.000000,1770371748.535455,0.000000
246.000000,11698.076033,10423.981896,-25273.050400,-4250.832409,-15495.011567,16868.392154,-12405.642856,-19713.635112,11669.197580,14111.371530,4078.701625,664.360900,8839.354973,15627.155081,-24625.498012,-8559.824057,0.008000,-0.014500,1.004500,192.000000,0.000000,32.000000,127.500000,56.000000,15.500000,48.000000,0.000000,0.000000,0.000000,1770371748.535469,0.000000
248.000000,11692.309283,10415.935268,-25299.134886,-4255.190999,-15500.688911,16865.642889,-12419.053903,-19728.946057,11687.771879,14120.334580,4085.228334,676.386139,8845.456999,15630.552546,-24611.952855,-8537.494664,0.008000,-0.014500,1.004500,192.000000,0.000000,0.000000,0.000000,0.000000,0.000000,0.000000,0.000000,0.000000,0.000000,1770371748.535482,0.000000
250.000000,11674.405536,10403.507698,-25322.581866,-4263.707014,-15503.058195,16876.304671,-12430.430940,-19747.788578,11647.315222,14102.095557,4057.154543,647.887665,8835.421066,15612.380578,-24637.635009,-8544.021373,0.008000,-0.014500,1.004500,192.000000,0.000000,0.000000,0.000000,0.000000,0.000000,0.000000,0.000000,0.000000,0.000000,1770371748.535496,0.000000
252.000000,11678.495905,10410.704960,-25312.747099,-4273.385319,-15497.157335,16875.500009,-12426.117054,-19746.626287,11652.053792,14106.029464,4049.577302,650.905150,8823.507586,15634.575860,-24620.692387,-8523.480120,0.008000,-0.014500,1.004500,192.000000,0.000000,0.000000,0.000000,0.000000,0.000000,0.000000,0.000000,0.000000,0.000000,1770371748.535509,0.000000
254.000000,11656.837065,10383.771108,-25331.813137,-4281.297836,-15504.332245,16858.065648,-12447.328859,-19776.331756,11638.329820,14088.684510,4034.981613,628.933385,8807.704903,15607.664360,-24625.319198,-8533.024315,0.008000,-0.014500,1.004500,192.000000,0.000000,0.000000,0.000000,0.000000,0.000000,0.000000,0.000000,0.000000,0.000000,1770371748.535522,0.000000
0.000000,11679.568789,10404.580582,-25310.109593,-4272.893581,-15494.139849,16866.916939,-12427.167586,-19755.902261,11633.546547,14082.314263,4031.114761,623.457208,8811.214126,15603.261066,-24627.107337,-8532.867853,0.007000,-0.015250,1.004250,192.000000,0.000000,24.000000,127.500000,64.000000,15.500000,48.000000,0.000000,0.000000,0.000000,1770371748.535535,0.000000
2.000000,11678.965292,10401.428986,-25317.619779,-4278.615627,-15491.614102,16863.295956,-12434.454254,-19762.317212,11661.039193,14098.832202,4047.833866,642.076211,8835.041086,15610.011293,-24609.091831,-8522.653106,0.007000,-0.015250,1.004250,192.000000,0.000000,0.000000,0.000000,0.000000,0.000000,0.000000,0.000000,0.000000,0.000000,1770371748.535547,0.000000
4.000000,11687.436603,10409.654428,-25314.468183,-4279.822621,-15488.060175,16856.344564,-12431.995563,-19754.203529,11645.147102,14087.343405,4040.256624,626.675859,8810.141243,15596.130859,-24626.883820,-8549.542254,0.007000,-0.015250,1.004250,192.000000,0.000000,0.000000,0.000000,0.000000,0.000000,0.000000,0.000000,0.000000,0.000000,1770371748.535560,0.000000
6.000000,11710.682417,10435.224823,-25293.390488,-4276.760432,-15469.329413,16857.976241,-12415.030589,-19730.957714,11674.941978,14106.498850,4062.675424,652.603883,8832.224766,15600.668264,-24609.158887,-8554.280824,0.007000,-0.015250,1.004250,192.000000,0.000000,0.000000,0.000000,0.000000,0.000000,0.000000,0.000000,0.000000,0.000000,1770371748.535573,0.000000
8.000000,11703.731025,10429.793349,-25307.472087,-4279.777918,-15467.384811,16856.523377,-12431.257955,-19745.039313,11671.253940,14104.464841,4058.875627,649.228769,8828.089694,15599.260104,-24611.796392,-8568.340071,0.007000,-0.015250,1.004250,192.000000,0.000000,0.000000,0.000000,0.000000,0.000000,0.000000,0.000000,0.000000,0.000000,1770371748.535586,0.000000
10.000000,11726.015714,10453.709716,-25285.276805,-4268.758508,-15456.812436,16870.113238,-12412.191917,-19722.285238,11680.015824,14117.272391,4066.765793,657.677729,8842.215996,15610.391272,-24608.175410,-8565.143772,0.005500,-0.012625,1.003125,192.000000,0.000000,16.000000,127.500000,88.000000,15.500000,40.000000,0.000000,0.000000,0.000000,1770371748.535599,0.000000
12.000000,11720.271316,10448.501760,-25295.513904,-4271.552476,-15466.647204,16863.966508,-12421.110263,-19730.622438,11699.037158,14135.399656,4078.791032,675.603828,8852.631909,15617.610886,-24594.227921,-8552.917368,0.005500,-0.012625,1.003125,192.000000,0.000000,0.000000,0.000000,0.000000,0.000000,0.000000,0.000000,0.000000,0.000000,1770371748.535612,0.000000
14.000000,11721.947696,10448.322946,-25297.078526,-4272.938284,-15467.541274,16864.100619,-12423.613658,-19732.701151,11677.512428,14115.707769,4068.956264,655.375499,8836.248080,15604.512764,-24613.584532,-8567.066022,0.005500,-0.012625,1.003125,192.000000,0.000000,0.000000,0.000000,0.000000,0.000000,0.000000,0.000000,0.000000,0.000000,1770371748.535628,0.000000
16.000000,11730.441359,10457.911844,-25282.684002,-4260.108383,-15465.931948,16870.180293,-12408.772100,-19720.206525,11695.550286,14131.018714,4081.361482,671.647569,8846.440476,15635.022895,-24593.602072,-8546.927100,0.005500,-0.012625,1.003125,192.000000,0.000000,0.000000,0.000000,0.000000,0.000000,0.000000,0.000000,0.000000,0.000000,1770371748.535641,0.000000
18.000000,11711.174156,10438.756399,-25303.269959,-4265.361043,-15466.066058,16871.811971,-12429.872147,-19743.452340,11678.697071,14124.179080,4068.822154,662.908037,8826.726237,15621.634200,-24600.285244,-8546.658879,0.005500,-0.012625,1.003125,192.000000,0.000000,0.000000,0.000000,0.000000,0.000000,0.000000,0.000000,0.000000,0.000000,1770371748.535654,0.000000
20.000000,11724.428740,10454.804952,-25288.786028,-4260.935397,-15458.265300,16886.228846,-12419.322123,-19731.404749,11675.478420,14121.742740,4064.150639,658.258874,8834.147016,15622.260049,-24599.324119,-8536.041801,0.001750,-0.014313,1.004563,192.000000,127.500000,120.000000,127.500000,64.000000,15.500000,56.000000,0.000000,0.000000,0.000000,1770371748.535667,0.000000
22.000000,11712.627019,10444.947832,-25306.801535,-4266.433926,-15461.819227,16878.830418,-12434.051923,-19748.637944,11686.095498,14129.878775,4064.955302,665.590246,8840.964298,15630.284325,-24587.790619,-8518.875661,0.001750,-0.014313,1.004563,192.000000,0.000000,0.000000,0.000000,0.000000,0.000000,0.000000,0.000000,0.000000,0.000000,1770371748.535680,0.000000
24.000000,11716.739740,10445.014887,-25309.126116,-4268.400880,-15475.006756,16869.979128,-12432.420246,-19745.732218,11660.815675,14112.623228,4049.890226,647.038298,8827.866176,15603.819859,-24614.188029,-8534.834806,0.001750,-0.014313,1.004563,192.000000,0.000000,0.000000,0.000000,0.000000,0.000000,0.000000,0.000000,0.000000,0.000000,1770371748.535692,0.000000
26.000000,11732.341258,10460.705812,-25290.842389,-4274.771127,-15482.069907,16867.922767,-12410.873164,-19722.844031,11684.776745,14126.526013,4068.151601,666.529020,8833.945851,15626.015142,-24606.588436,-8536.444132,0.001750,-0.014313,1.004563,192.000000,0.000000,0.000000,0.000000,0.000000,0.000000,0.000000,0.000000,0.000000,0.000000,1770371748.535705,0.000000
28.000000,11718.237307,10445.841902,-25312.881209,-4271.463069,-15489.311873,16853.014154,-12426.541737,-19740.099578,11672.080955,14119.507565,4066.743441,660.829325,8815.438606,15610.145403,-24623.620465,-8558.773525,0.001750,-0.014313,1.004563,192.000000,0.000000,0.000000,0.000000,0.000000,0.000000,0.000000,0.000000,0.000000,0.000000,1770371748.535716,0.000000
30.000000,11740.879624,10467.768963,-25291.088258,-4273.206505,-15480.728803,16855.137569,-12409.867336,-19720.206525,11669.957539,14115.126624,4068.933912,659.376461,8849.368554,15603.082252,-24628.180221,-8573.190400,-0.002125,-0.014156,1.004281,192.000000,127.500000,104.000000,127.500000,72.000000,15.500000,48.000000,0.000000,0.000000,0.000000,1770371748.535729,0.000000
32.000000,11749.552101,10474.340376,-25285.835598,-4271.910104,-15476.191399,16851.382476,-12415.343513,-19718.865421,11700.624132,14136.494891,4085.876535,680.409453,8846.507531,15620.382502,-24603.146267,-8566.239007,-0.002125,-0.014156,1.004281,192.000000,0.000000,0.000000,0.000000,0.000000,0.000000,0.000000,0.000000,0.000000,0.000000,1770371748.535742,0.000000
34.000000,11757.285804,10481.269417,-25284.606252,-4268.982025,-15475.319681,16860.189064,-12416.371693,-19716.742005,11693.985664,14129.543499,4084.714244,668.563028,8845.434647,15619.399025,-24615.059747,-8581.237028,-0.002125,-0.014156,1.004281,192.000000,0.000000,0.000000,0.000000,0.000000,0.000000,0.000000,0.000000,0.000000,0.000000,1770371748.535754,0.000000
36.000000,11771.255645,10495.529830,-25270.457598,-4263.014109,-15472.481009,16867.051049,-12402.737129,-19701.967502,11717.566755,14149.637717,4097.901773,689.394854,8857.705755,15622.640028,-24593.087982,-8562.059231,-0.002125,-0.014156,1.004281,192.000000,0.000000,0.000000,0.000000,0.000000,0.000000,0.000000,0.000000,0.000000,0.000000,1770371748.535767,0.000000
38.000000,11754.536540,10477.223751,-25291.892921,-4278.012130,-15476.750192,16854.221148,-12422.317257,-19724.587467,11706.301475,14135.198490,4090.391587,675.089738,8848.496836,15613.162889,-24604.643834,-8569.725879,-0.002125,-0.014156,1.004281,192.000000,0.000000,0.000000,0.000000,0.000000,0.000000,0.000000,0.000000,0.000000,0.000000,1770371748.535780,0.000000
40.000000,11761.398525,10487.818478,-25279.934738,-4261.449487,-15479.544160,16857.059819,-12406.849850,-19715.803232,11700.579429,14132.181005,4086.390625,671.513459,8846.865159,15605.183316,-24612.288131,-8566.775449,-0.002125,-0.014156,1.004281,192.000000,0.000000,0.000000,0.000000,0.000000,0.000000,0.000000,0.000000,0.000000,0.000000,1770371748.535792,0.000000
42.000000,11752.346069,10477.357862,-25293.882226,-4264.757546,-15484.394489,16858.110351,-12417.511632,-19728.364912,11709.497775,14142.485159,4085.876535,686.243258,8846.708697,15612.671150,-24601.648700,-8544.893091,-0.004000,-0.016000,1.006000,192.000000,127.500000,112.000000,127.500000,64.000000,15.500000,56.000000,0.000000,0.000000,0.000000,1770371748.535805,0.000000
44.000000,11750.289708,10475.413260,-25297.212636,-4268.982025,-15488.820134,16868.392154,-12422.764292,-19734.645752,11684.709690,14124.961391,4067.212828,662.550409,8834.370534,15611.061825,-24623.754576,-8553.543216,-0.004000,-0.016000,1.006000,192.000000,0.000000,0.000000,0.000000,0.000000,0.000000,0.000000,0.000000,0.000000,0.000000,1770371748.535817,0.000000
46.000000,11760.437400,10483.504591,-25280.404124,-4266.389223,-15484.238027,16867.453381,-12409.844984,-19720.430043,11705.988551,14134.617345,4076.108822,675.268552,8869.194552,15623.891726,-24607.549561,-8543.864911,-0.004000,-0.016000,1.006000,192.000000,0.000000,0.000000,0.000000,0.000000,0.000000,0.000000,0.000000,0.000000,0.000000,1770371748.535830,0.000000
48.000000,11740.253775,10458.537693,-25302.018261,-4273.094746,-15498.744309,16857.372744,-12427.905193,-19742.446511,11690.990530,14122.547403,4069.760927,659.868200,8833.565871,15600.444746,-24619.820669,-8556.001908,-0.004000,-0.016000,1.006000,192.000000,0.000000,0.000000,0.000000,0.000000,0.000000,0.000000,0.000000,0.000000,0.000000,1770371748.535842,0.000000
50.000000,11746.601671,10466.271396,-25289.367174,-4270.636054,-15500.755966,16851.784808,-12409.397949,-19727.560249,11680.105231,14113.740815,4067.056366,656.582493,8820.087769,15585.625539,-24628.806070,-8563.355632,-0.004000,-0.016000,1.006000,192.000000,0.000000,0.000000,0.000000,0.000000,0.000000,0.000000,0.000000,0.000000,0.000000,1770371748.535854,0.000000
52.000000,11740.633755,10458.738859,-25298.643148,-4284.069453,-15522.973600,16840.363066,-12412.504841,-19729.728368,11688.822411,14117.361798,4074.566552,670.373520,8819.864252,15596.220266,-24624.291018,-8572.452792,-0.004000,-0.010000,1.004000,192.000000,127.500000,112.000000,127.500000,88.000000,15.500000,48.000000,0.000000,0.000000,0.000000,1770371748.535866,0.000000
54.000000,11746.311098,10465.958472,-25296.072697,-4281.946037,-15521.721902,16838.016133,-12412.258972,-19725.995627,11670.426925,14105.917705,4069.492706,654.995520,8807.682551,15586.318444,-24649.973172,-8605.801595,-0.004000,-0.010000,1.004000,192.000000,0.000000,0.000000,0.000000,0.000000,0.000000,0.000000,0.000000,0.000000,0.000000,1770371748.535878,0.000000
56.000000,11765.466543,10488.980769,-25272.424552,-4272.558304,-15514.614047,16837.189119,-12395.964550,-19703.509772,11696.712577,14129.319981,4086.658846,676.609656,8840.427856,15607.798470,-24629.878954,-8601.532412,-0.004000,-0.010000,1.004000,192.000000,0.000000,0.000000,0.000000,0.000000,0.000000,0.000000,0.000000,0.000000,0.000000,1770371748.535892,0.000000
58.000000,11761.733802,10484.532772,-25285.589729,-4270.211371,-15505.271018,16840.743046,-12412.817766,-19715.378549,11695.125603,14131.532804,4087.865840,679.649494,8833.722333,15590.386461,-24631.421224,-8603.946400,-0.004000,-0.010000,1.004000,192.000000,0.000000,0.000000,0.000000,0.000000,0.000000,0.000000,0.000000,0.000000,0.000000,1770371748.535905,0.000000
60.000000,11775.815401,10497.809708,-25267.864796,-4261.427136,-15495.391547,16855.517549,-12396.791565,-19698.547685,11694.343292,14136.830167,4091.352712,684.119843,8835.666935,15600.578857,-24624.291018,-8595.095109,-0.004000,-0.010000,1.004000,192.000000,0.000000,0.000000,0.000000,0.000000,0.000000,0.000000,0.000000,0.000000,0.000000,1770371748.535918,0.000000
62.000000,11763.633700,10482.387004,-25283.645127,-4270.948979,-15505.047501,16849.817854,-12411.633123,-19715.937342,11707.329656,14144.385057,4091.866802,691.898250,8848.072153,15611.017121,-24608.309520,-8580.030034,-0.006000,-0.016000,1.000000,192.000000,127.500000,104.000000,127.500000,64.000000,15.500000,32.000000,0.000000,0.000000,0.000000,1770371748.535930,0.000000
64.000000,11760.750325,10481.090603,-25293.345784,-4268.892618,-15511.015417,16857.730372,-12418.137481,-19724.386302,11680.038176,14121.787443,4071.929046,662.706871,8819.216051,15599.103641,-24632.941143,-8589.864801,-0.006000,-0.016000,1.000000,192.000000,0.000000,0.000000,0.000000,0.000000,0.000000,0.000000,0.000000,0.000000,0.000000,1770371748.535943,0.000000
66.000000,11775.658938,10498.301446,-25277.185473,-4263.550551,-15508.020283,16867.252215,-12402.714777,-19704.493249,11700.288856,14139.512377,4081.652055,681.817613,8835.845749,15615.889801,-24614.836230,-8565.724917,-0.006000,-0.016000,1.000000,192.000000,0.000000,0.000000,0.000000,0.000000,0.000000,0.000000,0.000000,0.000000,0.000000,1770371748.535955,0.000000
68.000000,11764.103086,10486.611484,-25292.675232,-4266.344519,-15513.228239,16859.026773,-12420.819690,-19721.525278,11697.025501,14130.862252,4081.585000,674.106261,8856.789333,15599.237752,-24624.022797,-8563.936778,-0.006000,-0.016000,1.000000,192.000000,0.000000,0.000000,0.000000,0.000000,0.000000,0.000000,0.000000,0.000000,0.000000,1770371748.535967,0.000000
70.000000,11774.295482,10500.603676,-25276.291403,-4258.946092,-15501.091242,16872.057840,-12404.838193,-19706.750775,11698.008978,14132.739798,4082.210849,672.206363,8835.957508,15595.817935,-24625.475660,-8557.924158,-0.006000,-0.016000,1.000000,192.000000,0.000000,0.000000,0.000000,0.000000,0.000000,0.000000,0.000000,0.000000,0.000000,1770371748.535980,0.000000
72.000000,11767.321738,10492.959379,-25286.439095,-4262.589426,-15504.421652,16875.701174,-12408.190955,-19713.143374,11715.018656,14144.697981,4087.396453,688.612543,8848.318022,15617.856755,-24615.596189,-8543.730801,-0.006000,-0.016000,1.000000,192.000000,0.000000,0.000000,127.500000,48.000000,15.500000,48.000000,0.000000,0.000000,0.000000,1770371748.535992,0.000000
74.000000,11763.879569,10485.672711,-25291.669404,-4278.995607,-15516.290428,16869.889721,-12407.363940,-19715.512659,11690.878772,14122.972086,4077.360520,668.406566,8834.795217,15594.163906,-24648.810881,-8567.937740,-0.006000,-0.016000,1.000000,192.000000,0.000000,0.000000,0.000000,0.000000,0.000000,0.000000,0.000000,0.000000,0.000000,1770371749.015980,0.000000
76.000000,11769.489857,10491.841792,-25276.246700,-4262.321205,-15523.420635,16857.596261,-12393.170582,-19700.514638,11701.920533,14135.801987,4087.888192,679.425976,8844.607633,15625.858680,-24639.937239,-8571.759888,-0.006000,-0.016000,1.000000,192.000000,0.000000,0.000000,0.000000,0.000000,0.000000,0.000000,0.000000,0.000000,0.000000,1770371749.016076,0.000000
78.000000,11768.931063,10487.036167,-25286.707316,-4266.121002,-15528.047446,16855.808122,-12407.967437,-19707.287217,11696.109080,14123.910859,4090.525698,672.273418,8836.359839,15607.552601,-24648.140329,-8594.782185,-0.006000,-0.016000,1.000000,192.000000,0.000000,0.000000,0.000000,0.000000,0.000000,0.000000,0.000000,0.000000,0.000000,1770371749.016155,0.000000
80.000000,11790.768718,10507.890345,-25263.215633,-4254.498095,-15504.935742,16869.196817,-12392.075347,-19686.813019,11708.849574,14132.940964,4103.735579,681.817613,8844.473522,15589.939426,-24636.472718,-8596.503269,-0.006000,-0.016000,1.000000,192.000000,0.000000,0.000000,0.000000,0.000000,0.000000,0.000000,0.000000,0.000000,0.000000,1770371749.016235,0.000000
82.000000,11785.493706,10501.609504,-25268.781217,-4256.263883,-15507.036806,16873.935386,-12401.150155,-19694.054984,11728.988496,14150.665897,4116.543128,702.180052,8861.617310,15611.508860,-24608.823610,-8582.913409,-0.002000,-0.020000,1.006000,192.000000,127.500000,120.000000,127.500000,48.000000,15.500000,56.000000,0.000000,0.000000,0.000000,1770371749.016273,0.000000
84.000000,11781.693909,10496.625065,-25273.028049,-4258.856685,-15515.172841,16872.259006,-12406.894554,-19703.912104,11707.173193,14133.365647,4101.969791,680.700026,8849.904996,15604.445708,-24630.236582,-8596.346807,-0.002000,-0.020000,1.006000,192.000000,0.000000,0.000000,0.000000,0.000000,0.000000,0.000000,0.000000,0.000000,0.000000,1770371749.016301,0.000000
86.000000,11784.219656,10501.721263,-25267.618926,-4254.118115,-15525.231126,16869.241520,-12396.053957,-19699.799383,11721.433606,14149.101275,4105.188442,692.814671,8850.732011,15617.946162,-24618.412509,-8575.917313,-0.002000,-0.020000,1.006000,192.000000,0.000000,0.000000,0.000000,0.000000,0.000000,0.000000,0.000000,0.000000,0.000000,1770371749.016328,0.000000
88.000000,11763.186665,10478.341338,-25298.531389,-4259.147258,-15532.227222,16866.715773,-12418.629219,-19725.839165,11700.646484,14130.102292,4084.155450,674.933276,8824.513414,15598.455441,-24636.360960,-8565.635510,-0.002000,-0.020000,1.006000,192.000000,0.000000,0.000000,0.000000,0.000000,0.000000,0.000000,0.000000,0.000000,0.000000,1770371749.016355,0.000000
90.000000,11771.970901,10496.021568,-25286.595558,-4258.588464,-15524.493518,16878.539846,-12402.982998,-19708.918894,11691.236400,14127.934173,4077.002892,674.039206,8840.696077,15600.735319,-24642.641800,-8550.749248,-0.002000,-0.020000,1.006000,192.000000,0.000000,0.000000,0.000000,0.000000,0.000000,0.000000,0.000000,0.000000,0.000000,1770371749.016392,0.000000
92.000000,11766.114743,10490.813612,-25297.033822,-4256.129772,-15534.730617,16877.958700,-12409.152080,-19714.864458,11708.648408,14146.486121,4085.720072,687.807880,8836.471598,15608.267857,-24633.209364,-8535.706524,-0.002000,-0.020000,1.006000,192.000000,127.500000,120.000000,127.500000,48.000000,15.500000,56.000000,0.000000,0.000000,0.000000,1770371749.016419,0.000000
94.000000,11762.761982,10484.242199,-25303.985215,-4263.058813,-15541.190272,16878.115163,-12414.918830,-19721.458223,11686.251961,14124.693170,4074.655959,666.484316,8816.287972,15590.431165,-24659.696181,-8549.095219,-0.002000,-0.020000,1.006000,192.000000,0.000000,0.000000,0.000000,0.000000,0.000000,0.000000,0.000000,0.000000,0.000000,1770371749.016446,0.000000
96.000000,11771.523866,10495.641589,-25285.925005,-4258.566112,-15537.859862,16872.124895,-12399.049091,-19706.080223,11705.697978,14136.606650,4081.272075,683.471642,8834.392885,15603.126955,-24648.967343,-8536.622946,-0.002000,-0.020000,1.006000,192.000000,0.000000,0.000000,0.000000,0.000000,0.000000,0.000000,0.000000,0.000000,0.000000,1770371749.016473,0.000000
98.000000,11753.798932,10475.547370,-25299.246645,-4268.914970,-15541.257327,16857.998593,-12416.550507,-19725.526241,11698.880696,14125.810757,4077.628741,676.274380,8832.023601,15588.978301,-24656.030495,-8556.739516,-0.002000,-0.020000,1.006000,192.000000,0.000000,0.000000,0.000000,0.000000,0.000000,0.000000,0.000000,0.000000,0.000000,1770371749.016500,0.000000
100.000000,11771.792087,10492.489993,-25273.072752,-4263.662310,-15529.567364,16859.227939,-12397.573876,-19703.152144,11704.200411,14123.262659,4083.060215,676.184973,8832.604746,15598.500144,-24656.499881,-8578.174839,-0.002000,-0.020000,1.006000,192.000000,0.000000,0.000000,0.000000,0.000000,0.000000,0.000000,0.000000,0.000000,0.000000,1770371749.016527,0.000000
102.000000,11763.365479,10482.878743,-25279.800627,-4261.874171,-15525.633457,16850.935441,-12403.944123,-19709.142412,11718.170252,14138.663010,4094.861936,693.194651,8850.106162,15619.466081,-24634.952800,-8580.231199,-0.008000,-0.012000,1.006000,192.000000,127.500000,96.000000,127.500000,80.000000,15.500000,56.000000,0.000000,0.000000,0.000000,1770371749.016554,0.000000
104.000000,11767.098220,10488.399623,-25279.554758,-4256.576807,-15521.319571,16863.899453,-12405.240524,-19705.387319,11696.958446,14126.436606,4084.602485,677.280209,8842.975955,15594.610941,-24651.470739,-8595.050406,-0.008000,-0.012000,1.006000,192.000000,0.000000,0.000000,0.000000,0.000000,0.000000,0.000000,0.000000,0.000000,0.000000,1770371749.016581,0.000000
106.000000,11781.939779,10504.202307,-25263.528557,-4251.324147,-15511.238934,16882.876084,-12393.259989,-19689.718746,11720.718350,14148.363668,4099.153471,698.134386,8856.744630,15628.786758,-24627.576724,-8571.648129,-0.008000,-0.012000,1.006000,192.000000,0.000000,0.000000,0.000000,0.000000,0.000000,0.000000,0.000000,0.000000,0.000000,1770371749.016608,0.000000
108.000000,11761.018546,10481.358824,-25289.233063,-4264.176400,-15515.239896,16879.813895,-12416.639914,-19716.876115,11708.626057,14138.752417,4091.822099,684.097491,8847.111028,15611.464156,-24632.225887,-8567.021318,-0.008000,-0.012000,1.006000,192.000000,0.000000,0.000000,0.000000,0.000000,0.000000,0.000000,0.000000,0.000000,0.000000,1770371749.016636,0.000000
110.000000,11763.074906,10483.437536,-25280.314717,-4251.212388,-15508.556725,16888.307558,-12404.927600,-19712.584580,11699.014807,14134.527938,4087.619971,673.793337,8840.651374,15616.247429,-24633.052901,-8554.370231,-0.008000,-0.012000,1.006000,192.000000,0.000000,0.000000,0.000000,0.000000,0.000000,0.000000,0.000000,0.000000,0.000000,1770371749.016663,0.000000
112.000000,11747.763961,10465.600844,-25293.837523,-4261.628301,-15516.804518,16872.862503,-12416.528155,-19730.421273,11705.630923,14134.572641,4081.048558,671.200534,8840.964298,15608.625485,-24617.741956,-8534.365420,-0.005000,-0.011000,1.007000,192.000000,127.500000,120.000000,127.500000,88.000000,15.500000,64.000000,0.000000,0.000000,0.000000,1770371749.016690,0.000000
114.000000,11760.973842,10474.273321,-25290.507113,-4262.120040,-15519.151451,16872.348413,-12412.393083,-19719.290104,11682.742737,14113.673760,4072.577247,648.871142,8818.567850,15592.196952,-24639.132576,-8549.408144,-0.005000,-0.011000,1.007000,192.000000,0.000000,0.000000,0.000000,0.000000,0.000000,0.000000,0.000000,0.000000,0.000000,1770371749.016717,0.000000
116.000000,11788.041805,10502.324760,-25266.099008,-4255.347461,-15516.335132,16872.348413,-12389.549600,-19683.370850,11718.349066,14136.740760,4102.729750,685.438595,8848.675650,15609.094871,-24625.296846,-8537.986402,-0.005000,-0.011000,1.007000,192.000000,0.000000,0.000000,0.000000,0.000000,0.000000,0.000000,0.000000,0.000000,0.000000,1770371749.016743,0.000000
118.000000,11779.972825,10490.411280,-25282.326374,-4257.828505,-15526.415768,16862.446590,-12402.200687,-19695.329034,11724.987534,14142.976897,4113.503291,693.127596,8841.836016,15608.983112,-24642.664152,-8549.855179,-0.005000,-0.011000,1.007000,192.000000,0.000000,0.000000,0.000000,0.000000,0.000000,0.000000,0.000000,0.000000,0.000000,1770371749.016770,0.000000
120.000000,11789.762889,10504.023493,-25266.613098,-4254.855723,-15519.643190,16868.146285,-12386.129783,-19680.465124,11714.146938,14133.902089,4112.430407,688.567840,8849.927348,15601.629389,-24650.084931,-8564.584978,-0.005000,-0.011000,1.007000,192.000000,0.000000,0.000000,0.000000,0.000000,0.000000,0.000000,0.000000,0.000000,0.000000,1770371749.016797,0.000000
122.000000,11785.493706,10497.317969,-25276.961956,-4259.996624,-15515.284600,16866.022869,-12398.669112,-19692.602121,11741.371362,14147.514301,4119.202986,700.347209,8868.926331,15625.590459,-24630.169526,-8558.170028,-0.003500,-0.010500,1.002500,192.000000,127.500000,120.000000,127.500000,88.000000,15.500000,24.000000,0.000000,0.000000,0.000000,1770371749.016828,0.000000
124.000000,11781.269226,10493.920504,-25279.197130,-4263.103516,-15513.988199,16880.126820,-12406.872202,-19700.715804,11711.978818,14129.476443,4098.594677,673.078081,8843.802970,15595.594418,-24645.122843,-8575.090298,-0.003500,-0.010500,1.002500,192.000000,0.000000,0.000000,0.000000,0.000000,0.000000,0.000000,0.000000,0.000000,0.000000,1770371749.016843,0.000000
126.000000,11786.767755,10502.838850,-25260.220499,-4257.202656,-15500.174820,16890.162753,-12393.930542,-19688.176476,11722.618249,14145.524996,4104.450834,689.238392,8856.990499,15621.835366,-24621.809974,-8564.428516,-0.003500,-0.010500,1.002500,192.000000,0.000000,0.000000,0.000000,0.000000,0.000000,0.000000,0.000000,0.000000,0.000000,1770371749.016857,0.000000
128.000000,11775.033090,10489.696025,-25280.225310,-4259.728403,-15495.302140,16874.069497,-12415.589382,-19709.969426,11706.949676,14138.148920,4097.387683,683.516345,8848.675650,15606.725586,-24619.820669,-8572.028109,-0.003500,-0.010500,1.002500,192.000000,0.000000,0.000000,0.000000,0.000000,0.000000,0.000000,0.000000,0.000000,0.000000,1770371749.016870,0.000000
130.000000,11780.732784,10495.730996,-25263.059171,-4254.229874,-15483.388660,16873.063668,-12401.418376,-19700.827563,11706.413234,14133.678571,4094.303142,682.130537,8855.068249,15611.844136,-24619.150116,-8574.375042,-0.003500,-0.010500,1.002500,192.000000,0.000000,0.000000,0.000000,0.000000,0.000000,0.000000,0.000000,0.000000,0.000000,1770371749.016884,0.000000
132.000000,11772.172066,10487.326740,-25273.653897,-4266.389223,-15482.494591,16857.551558,-12410.292019,-19708.985950,11721.947696,14134.796159,4099.198174,688.366674,8861.505552,15613.364054,-24599.480581,-8561.411030,-0.003500,-0.010500,1.002500,192.000000,0.000000,0.000000,127.500000,96.000000,15.500000,32.000000,0.000000,0.000000,0.000000,1770371749.016896,0.000000
134.000000,11764.192493,10483.996330,-25284.069810,-4260.980101,-15492.754041,16853.483540,-12415.455272,-19714.216258,11691.236400,14122.547403,4085.071872,666.596075,8837.633888,15599.081290,-24622.011140,-8569.345900,-0.003500,-0.010500,1.002500,192.000000,0.000000,0.000000,0.000000,0.000000,0.000000,0.000000,0.000000,0.000000,0.000000,1770371749.016909,0.000000
136.000000,11771.702680,10491.730033,-25272.379848,-4262.164743,-15492.150544,16864.122971,-12401.910115,-19702.570999,11706.145013,14132.739798,4091.956209,679.828308,8843.668859,15599.595380,-24604.040337,-8542.300289,-0.003500,-0.010500,1.002500,192.000000,0.000000,0.000000,0.000000,0.000000,0.000000,0.000000,0.000000,0.000000,0.000000,1770371749.016921,0.000000
138.000000,11750.781447,10470.562931,-25301.392412,-4266.456278,-15519.397321,16857.305689,-12421.311429,-19725.034502,11692.421042,14118.233516,4079.215715,668.674787,8830.436627,15592.264008,-24619.284227,-8547.396487,-0.003500,-0.010500,1.002500,192.000000,0.000000,0.000000,0.000000,0.000000,0.000000,0.000000,0.000000,0.000000,0.000000,1770371749.016934,0.000000
140.000000,11763.544293,10483.683405,-25288.048421,-4264.936360,-15529.880289,16858.043296,-12405.262876,-19710.885848,11686.989568,14112.444414,4078.120479,666.774889,8833.521167,15589.738260,-24635.355131,-8557.767696,-0.003500,-0.010500,1.002500,192.000000,0.000000,0.000000,0.000000,0.000000,0.000000,0.000000,0.000000,0.000000,0.000000,1770371749.016946,0.000000
142.000000,11762.672575,10482.051728,-25294.105744,-4265.316339,-15542.263155,16847.001534,-12409.956743,-19715.043272,11711.151804,14133.656220,4087.642322,682.599924,8847.513359,15609.273685,-24626.593247,-8548.178798,-0.002750,-0.013250,1.001250,192.000000,127.500000,120.000000,127.500000,64.000000,15.500000,32.000000,0.000000,0.000000,0.000000,1770371749.016958,0.000000
144.000000,11762.158485,10483.549295,-25296.720898,-4266.992720,-15543.134873,16842.330020,-12408.660341,-19713.769223,11690.923475,14116.043045,4076.891133,661.432822,8829.922537,15583.904455,-24654.912907,-8580.164144,-0.002750,-0.013250,1.001250,192.000000,0.000000,0.000000,0.000000,0.000000,0.000000,0.000000,0.000000,0.000000,0.000000,1770371749.016971,0.000000
146.000000,11783.057366,10506.817461,-25272.312793,-4258.253188,-15529.343847,16851.449531,-12389.057861,-19689.361118,11709.296609,14135.600821,4092.738520,684.656284,8841.321926,15611.352397,-24641.233640,-8581.192324,-0.002750,-0.013250,1.001250,192.000000,0.000000,0.000000,0.000000,0.000000,0.000000,0.000000,0.000000,0.000000,0.000000,1770371749.016984,0.000000
148.000000,11784.510229,10500.357807,-25279.197130,-4254.989833,-15518.525603,16864.234729,-12405.754615,-19699.709976,11718.796100,14140.898185,4102.729750,688.657247,8853.458924,15606.971455,-24644.474643,-8588.434290,-0.002750,-0.013250,1.001250,192.000000,0.000000,0.000000,0.000000,0.000000,0.000000,0.000000,0.000000,0.000000,0.000000,1770371749.016996,0.000000
150.000000,11795.060253,10515.288772,-25254.654915,-4246.674984,-15498.319626,16890.699195,-12393.215286,-19684.779010,11725.367513,14147.201377,4110.955192,694.044017,8866.020604,15617.722645,-24639.221983,-8579.605350,-0.002750,-0.013250,1.001250,192.000000,0.000000,0.000000,0.000000,0.000000,0.000000,0.000000,0.000000,0.000000,0.000000,1770371749.017009,0.000000
152.000000,11778.363499,10496.468603,-25264.981421,-4257.292063,-15495.436251,16885.625349,-12405.419338,-19700.894618,11733.145920,14152.588147,4112.788035,700.995410,8869.418069,15628.473834,-24613.383366,-8559.600539,-0.002375,-0.014625,1.003625,192.000000,127.500000,120.000000,127.500000,64.000000,15.500000,56.000000,0.000000,0.000000,0.000000,1770371749.017021,0.000000
154.000000,11765.600653,10483.705757,-25278.079543,-4263.639958,-15498.118460,16875.142381,-12415.544679,-19712.785746,11702.635789,14126.682475,4092.805575,674.441537,8856.677575,15601.472926,-24627.666131,-8568.787106,-0.002375,-0.014625,1.003625,192.000000,0.000000,0.000000,0.000000,0.000000,0.000000,0.000000,0.000000,0.000000,0.000000,1770371749.017035,0.000000
156.000000,11766.897055,10486.611484,-25274.056229,-4262.052984,-15502.387643,16875.097677,-12408.593286,-19707.354272,11712.649371,14126.973048,4092.671465,678.151927,8853.369517,15602.903438,-24609.404756,-8548.737591,-0.002375,-0.014625,1.003625,192.000000,0.000000,0.000000,0.000000,0.000000,0.000000,0.000000,0.000000,0.000000,0.000000,1770371749.017048,0.000000
158.000000,11737.973897,10460.504646,-25308.030880,-4266.702147,-15503.974617,16863.653584,-12435.393028,-19736.411540,11684.262655,14112.198545,4071.303197,661.343415,8833.297650,15587.346624,-24618.412509,-8544.088429,-0.002375,-0.014625,1.003625,192.000000,0.000000,0.000000,0.000000,0.000000,0.000000,0.000000,0.000000,0.000000,0.000000,1770371749.017061,0.000000
160.000000,11749.976784,10474.273321,-25295.737421,-4256.688566,-15495.771527,16868.950947,-12420.439711,-19720.385339,11674.964330,14115.461900,4063.591845,660.024662,8830.324868,15591.347586,-24618.479564,-8537.382905,-0.002375,-0.014625,1.003625,192.000000,0.000000,0.000000,0.000000,0.000000,0.000000,0.000000,0.000000,0.000000,0.000000,1770371749.017073,0.000000
162.000000,11742.868929,10466.941949,-25301.303005,-4260.063679,-15494.810402,16861.261947,-12423.680714,-19724.788633,11691.571676,14132.024542,4076.689968,677.190802,8850.061458,15604.021025,-24600.665224,-8522.250774,-0.003188,-0.015312,1.003812,192.000000,127.500000,112.000000,127.500000,64.000000,15.500000,48.000000,0.000000,0.000000,0.000000,1770371749.017085,0.000000
164.000000,11742.265432,10464.729126,-25302.442944,-4263.259979,-15499.079585,16858.892662,-12422.808996,-19729.258982,11666.269501,14113.897278,4065.782316,657.811839,8827.687362,15586.988996,-24623.039320,-8534.544234,-0.003188,-0.015312,1.003812,192.000000,0.000000,0.000000,0.000000,0.000000,0.000000,0.000000,0.000000,0.000000,0.000000,1770371749.017098,0.000000
166.000000,11754.357726,10476.620254,-25285.165046,-4262.589426,-15497.649073,16861.217244,-12404.659379,-19714.618589,11689.269446,14123.150900,4076.354692,671.155831,8842.975955,15600.221229,-24610.947026,-8522.563699,-0.003188,-0.015312,1.003812,192.000000,0.000000,0.000000,0.000000,0.000000,0.000000,0.000000,0.000000,0.000000,0.000000,1770371749.017110,0.000000
168.000000,11742.533653,10461.063440,-25302.487648,-4268.579694,-15499.638379,16853.081209,-12419.120958,-19730.778900,11687.704824,14113.271429,4072.867819,661.432822,8838.505606,15593.627464,-24620.982959,-8531.504396,-0.003188,-0.015312,1.003812,192.000000,0.000000,0.000000,0.000000,0.000000,0.000000,0.000000,0.000000,0.000000,0.000000,1770371749.017123,0.000000
170.000000,11762.225540,10479.749498,-25276.291403,-4262.611778,-15501.650036,16861.820741,-12399.451423,-19705.499077,11686.184905,14112.891449,4078.791032,664.293845,8837.410371,15587.592493,-24628.694311,-8541.495626,-0.003188,-0.015312,1.003812,192.000000,0.000000,0.000000,0.000000,0.000000,0.000000,0.000000,0.000000,0.000000,0.000000,1770371749.017135,0.000000
172.000000,11766.829999,10481.112955,-25275.374982,-4267.417403,-15506.187440,16859.674973,-12404.100585,-19702.816868,11707.620228,14131.801025,4098.304105,684.410415,8853.570682,15606.502069,-24617.093756,-8533.806626,-0.003594,-0.013656,1.001906,192.000000,127.500000,112.000000,127.500000,80.000000,15.500000,32.000000,0.000000,0.000000,0.000000,1770371749.017147,0.000000
174.000000,11764.728935,10480.285940,-25282.326374,-4269.585522,-15517.340960,16857.931537,-12410.716702,-19707.421328,11688.174211,14121.407464,4093.923163,668.518325,8843.870025,15590.699385,-24643.468814,-8553.811437,-0.003594,-0.013656,1.001906,192.000000,0.000000,0.000000,0.000000,0.000000,0.000000,0.000000,0.000000,0.000000,0.000000,1770371749.017160,0.000000
176.000000,11768.796953,10484.175144,-25274.592671,-4266.299816,-15510.926010,16852.187139,-12401.954818,-19697.944188,11701.004112,14136.159615,4103.087378,682.398758,8850.597900,15595.505011,-24633.656398,-8545.585995,-0.003594,-0.013656,1.001906,192.000000,0.000000,0.000000,0.000000,0.000000,0.000000,0.000000,0.000000,0.000000,0.000000,1770371749.017179,0.000000
178.000000,11754.089505,10465.153809,-25302.934683,-4272.848877,-15521.677199,16845.235747,-12425.737074,-19722.329941,11693.806850,14119.909897,4094.549012,669.568857,8847.535711,15579.277644,-24638.327913,-8552.246815,-0.003594,-0.013656,1.001906,192.000000,0.000000,0.000000,0.000000,0.000000,0.000000,0.000000,0.000000,0.000000,0.000000,1770371749.017192,0.000000
180.000000,11755.050630,10472.462830,-25289.948319,-4265.606912,-15508.132041,16858.982069,-12414.628257,-19714.260961,11688.241266,14122.122720,4085.898886,664.495011,8836.784522,15597.203743,-24634.215192,-8548.826998,-0.003594,-0.013656,1.001906,192.000000,0.000000,0.000000,0.000000,0.000000,0.000000,0.000000,0.000000,0.000000,0.000000,1770371749.017204,0.000000
182.000000,11746.065229,10464.192684,-25295.022165,-4265.383394,-15496.732652,16866.894587,-12425.044170,-19726.040331,11697.830164,14134.684400,4081.920276,672.072252,8855.850560,15604.535115,-24603.772116,-8527.637545,-0.003594,-0.013656,1.001906,192.000000,0.000000,0.000000,0.000000,0.000000,0.000000,0.000000,0.000000,0.000000,0.000000,1770371749.017217,0.000000
184.000000,11745.729953,10463.231559,-25296.765601,-4264.154048,-15481.734631,16878.048107,-12429.872147,-19729.638962,11677.288911,14118.457033,4070.587941,652.626235,8845.434647,15596.108508,-24609.292997,-8530.185643,-0.003594,-0.013656,1.001906,192.000000,0.000000,0.000000,127.500000,80.000000,15.500000,16.000000,0.000000,0.000000,0.000000,1770371749.017230,0.000000
186.000000,11756.391735,10477.402565,-25278.258357,-4259.147258,-15470.938739,16884.775982,-12412.482490,-19713.679816,11701.495850,14135.422007,4078.835735,669.568857,8860.678537,15616.001560,-24586.114238,-8513.533594,-0.003594,-0.013656,1.001906,192.000000,0.000000,0.000000,0.000000,0.000000,0.000000,0.000000,0.000000,0.000000,0.000000,1770371749.017243,0.000000
188.000000,11743.874758,10461.890455,-25294.575130,-4264.042290,-15473.665652,16882.026718,-12426.966420,-19731.181232,11692.421042,14129.699961,4077.181706,663.243313,8864.634796,15612.760557,-24593.758535,-8519.501510,-0.003594,-0.013656,1.001906,192.000000,0.000000,0.000000,0.000000,0.000000,0.000000,0.000000,0.000000,0.000000,0.000000,1770371749.017256,0.000000
190.000000,11762.851389,10479.682443,-25275.710258,-4249.357194,-15469.955262,16889.626311,-12404.569972,-19708.181287,11697.763109,14128.492967,4085.161279,664.338549,8866.288825,15622.416511,-24606.431974,-8524.664763,-0.003594,-0.013656,1.001906,192.000000,0.000000,0.000000,0.000000,0.000000,0.000000,0.000000,0.000000,0.000000,0.000000,1770371749.017268,0.000000
192.000000,11754.760057,10474.340376,-25280.515883,-4251.122981,-15476.370213,16885.424183,-12405.598152,-19709.209467,11714.571621,14151.068229,4100.516927,688.970171,8879.319892,15636.967497,-24601.693404,-8517.109873,-0.003594,-0.013656,1.001906,192.000000,0.000000,0.000000,0.000000,0.000000,0.000000,0.000000,0.000000,0.000000,0.000000,1770371749.017280,0.000000
194.000000,11745.685249,10462.136324,-25285.276805,-4251.882941,-15493.111669,16873.331889,-12407.296885,-19714.395072,11684.486173,14129.655257,4090.928029,669.278284,8853.324813,15618.124976,-24635.489242,-8544.937795,-0.003594,-0.013656,1.001906,192.000000,0.000000,0.000000,127.500000,72.000000,15.500000,24.000000,0.000000,0.000000,0.000000,1770371749.495380,0.000000
196.000000,11749.865025,10462.315138,-25268.960031,-4260.868342,-15512.647094,16849.326116,-12395.562219,-19710.282351,11697.181964,14131.175176,4093.051445,674.016854,8853.280110,15606.367958,-24631.018893,-8556.538350,-0.003594,-0.013656,1.001906,192.000000,0.000000,0.000000,0.000000,0.000000,0.000000,0.000000,0.000000,0.000000,0.000000,1770371749.495451,0.000000
198.000000,11729.010848,10437.772922,-25288.048421,-4278.056834,-15532.271925,16817.184307,-12418.875089,-19734.824566,11680.373452,14103.034330,4078.567514,654.727299,8849.234444,15571.812161,-24643.133538,-8583.047519,-0.003594,-0.013656,1.001906,192.000000,0.000000,0.000000,0.000000,0.000000,0.000000,0.000000,0.000000,0.000000,0.000000,1770371749.495502,0.000000
200.000000,11748.143941,10457.598920,-25268.155368,-4275.933418,-15525.298181,16823.196926,-12405.151117,-19713.143374,11678.071222,14098.295760,4080.623875,653.095621,8849.122685,15573.577949,-24643.535870,-8595.184516,-0.003594,-0.013656,1.001906,192.000000,0.000000,0.000000,0.000000,0.000000,0.000000,0.000000,0.000000,0.000000,0.000000,1770371749.495548,0.000000
202.000000,11745.998173,10457.285995,-25277.118418,-4281.566057,-15521.252515,16827.622572,-12411.588420,-19714.104499,11700.154746,14115.707769,4096.359503,674.016854,8866.087659,15589.447688,-24619.954779,-8579.404185,-0.003594,-0.013656,1.001906,192.000000,0.000000,0.000000,0.000000,0.000000,0.000000,0.000000,0.000000,0.000000,0.000000,1770371749.495596,0.000000
204.000000,11740.946679,10456.168408,-25291.311776,-4279.263828,-15515.575172,16843.447607,-12418.226888,-19717.412557,11673.086783,14103.369606,4084.647189,657.811839,8850.329679,15582.920978,-24636.092739,-8583.025167,-0.003594,-0.013656,1.001906,192.000000,0.000000,0.000000,127.500000,88.000000,15.500000,48.000000,0.000000,0.000000,0.000000,1770371749.495637,0.000000
206.000000,11750.155598,10466.964301,-25288.651918,-4270.591351,-15509.227277,16855.003459,-12407.341588,-19707.488383,11691.839897,14118.054702,4092.358541,674.955627,8856.990499,15597.181391,-24617.429032,-8551.039821,-0.003594,-0.013656,1.001906,192.000000,0.000000,0.000000,0.000000,0.000000,0.000000,0.000000,0.000000,0.000000,0.000000,1770371749.495682,0.000000
208.000000,11724.965182,10441.930347,-25317.217447,-4273.832354,-15515.128137,16856.165750,-12428.799263,-19735.271601,11676.439545,14108.197583,4076.600561,658.169467,8839.846711,15584.731470,-24630.862430,-8551.330394,-0.003594,-0.013656,1.001906,192.000000,0.000000,0.000000,0.000000,0.000000,0.000000,0.000000,0.000000,0.000000,0.000000,1770371749.495695,0.000000
210.000000,11739.829092,10459.990556,-25295.491552,-4255.325109,-15497.246742,16872.326061,-12406.827498,-19712.785746,11670.404574,14111.907972,4073.851296,659.421165,8854.040069,15598.075461,-24635.601000,-8554.481990,-0.003594,-0.013656,1.001906,192.000000,0.000000,0.000000,0.000000,0.000000,0.000000,0.000000,0.000000,0.000000,0.000000,1770371749.495708,0.000000
212.000000,11742.466598,10461.644585,-25294.038688,-4250.944167,-15488.887189,16881.065593,-12407.699216,-19710.863496,11697.360778,14138.953583,4088.759910,685.371540,8866.221770,15627.780930,-24615.864410,-8542.546158,-0.003594,-0.013656,1.001906,192.000000,0.000000,0.000000,0.000000,0.000000,0.000000,0.000000,0.000000,0.000000,0.000000,1770371749.495721,0.000000
214.000000,11755.207092,10473.021623,-25284.852121,-4239.477723,-15483.411012,16896.622407,-12403.653551,-19704.090918,11686.788402,14133.902089,4090.011607,679.493031,8861.863179,15628.563241,-24632.963494,-8554.414934,-0.002000,-0.010000,1.012000,192.000000,127.500000,120.000000,127.500000,88.000000,15.500000,80.000000,0.000000,0.000000,0.000000,1770371749.495734,0.000000
216.000000,11765.265377,10480.710623,-25265.607269,-4230.805246,-15471.318718,16912.022759,-12388.767289,-19687.640034,11717.767920,14157.684345,4110.709323,707.231546,8885.064290,15650.087971,-24615.640892,-8534.499530,-0.002000,-0.010000,1.012000,192.000000,0.000000,0.000000,0.000000,0.000000,0.000000,0.000000,0.000000,0.000000,0.000000,1770371749.495747,0.000000
218.000000,11747.227519,10457.867141,-25289.836560,-4237.421362,-15490.518867,16906.948913,-12409.979094,-19712.316360,11705.340350,14145.457941,4104.115558,694.647514,8874.022528,15648.702162,-24626.280323,-8540.020411,-0.002000,-0.010000,1.012000,192.000000,0.000000,0.000000,0.000000,0.000000,0.000000,0.000000,0.000000,0.000000,0.000000,1770371749.495768,0.000000
220.000000,11751.139075,10460.482295,-25279.442999,-4243.098705,-15505.427480,16887.949930,-12401.396024,-19708.270694,11694.700920,14133.812682,4092.917334,682.577572,8857.839865,15626.462177,-24639.981942,-8554.593748,-0.002000,-0.010000,1.012000,192.000000,0.000000,0.000000,0.000000,0.000000,0.000000,0.000000,0.000000,0.000000,0.000000,1770371749.495781,0.000000
222.000000,11745.752304,10454.492027,-25288.830732,-4262.120040,-15514.926972,16862.424238,-12410.448481,-19717.993703,11705.496813,14128.805891,4092.090320,685.617409,8867.115839,15618.214383,-24629.990712,-8557.119496,-0.002000,-0.010000,1.012000,192.000000,0.000000,0.000000,0.000000,0.000000,0.000000,0.000000,0.000000,0.000000,0.000000,1770371749.495794,0.000000
224.000000,11747.495740,10455.095524,-25289.724802,-4272.290083,-15504.511059,16848.275584,-12414.538850,-19722.620514,11683.770917,14105.425966,4078.746328,657.677729,8863.763078,15580.797563,-24648.922640,-8584.947417,-0.004000,-0.010000,1.002000,192.000000,127.500000,112.000000,127.500000,88.000000,15.500000,40.000000,0.000000,0.000000,0.000000,1770371749.495807,0.000000
226.000000,11758.649261,10470.607635,-25269.496473,-4271.150144,-15495.235085,16853.058857,-12400.658417,-19706.683720,11708.469595,14121.586278,4093.610238,674.620351,8895.748424,15606.077386,-24620.357111,-8569.100031,-0.004000,-0.010000,1.002000,192.000000,0.000000,0.000000,0.000000,0.000000,0.000000,0.000000,0.000000,0.000000,0.000000,1770371749.495820,0.000000
228.000000,11744.567662,10452.234501,-25289.098953,-4271.440717,-15505.159259,16847.560328,-12416.572859,-19724.028674,11699.663007,14117.182984,4089.877497,671.222886,8874.715432,15600.221229,-24620.088890,-8566.440173,-0.004000,-0.010000,1.002000,192.000000,0.000000,0.000000,0.000000,0.000000,0.000000,0.000000,0.000000,0.000000,0.000000,1770371749.495833,0.000000
230.000000,11754.715354,10463.142152,-25278.213653,-4265.115173,-15500.532448,16862.692459,-12401.731301,-19711.444642,11694.075071,14113.271429,4088.134061,669.457098,8870.289787,15590.878199,-24624.827459,-8567.825981,-0.004000,-0.010000,1.002000,192.000000,0.000000,0.000000,0.000000,0.000000,0.000000,0.000000,0.000000,0.000000,0.000000,1770371749.495847,0.000000
232.000000,11751.921386,10462.225731,-25284.896825,-4261.963578,-15502.611161,16861.530168,-12405.017007,-19710.058833,11711.084749,14133.052723,4097.432387,688.724302,8883.119688,15614.548697,-24615.707948,-8558.773525,-0.004000,-0.010000,1.002000,192.000000,0.000000,0.000000,0.000000,0.000000,0.000000,0.000000,0.000000,0.000000,0.000000,1770371749.495867,0.000000
234.000000,11754.447133,10464.505609,-25288.853084,-4251.681775,-15497.157335,16866.358145,-12404.480565,-19704.515601,11690.677606,14120.379283,4091.576230,677.034340,8871.765002,15612.402929,-24644.184070,-8582.913409,-0.004000,-0.010000,1.006000,192.000000,127.500000,112.000000,127.500000,88.000000,15.500000,56.000000,0.000000,0.000000,0.000000,1770371749.495880,0.000000
236.000000,11774.340185,10487.326740,-25264.444979,-4236.169664,-15486.137925,16875.120029,-12381.838248,-19677.402935,11719.220784,14146.419066,4110.284640,704.906965,8901.626933,15639.359133,-24626.839116,-8567.647167,-0.004000,-0.010000,1.006000,192.000000,0.000000,0.000000,0.000000,0.000000,0.000000,0.000000,0.000000,0.000000,0.000000,1770371749.495893,0.000000
238.000000,11761.197360,10473.491010,-25280.046496,-4234.917967,-15492.172896,16878.115163,-12398.780870,-19695.060813,11717.723217,14148.453075,4111.245765,702.090645,8890.272247,15639.359133,-24633.164660,-8564.808496,-0.004000,-0.010000,1.006000,192.000000,0.000000,0.000000,0.000000,0.000000,0.000000,0.000000,0.000000,0.000000,0.000000,1770371749.495906,0.000000
240.000000,11766.382964,10482.476411,-25263.908537,-4231.565205,-15484.662710,16893.716680,-12388.990806,-19687.327109,11712.895240,14145.279127,4107.915355,696.927392,8883.432613,15643.024819,-24635.444538,-8559.399373,-0.004000,-0.010000,1.006000,192.000000,0.000000,0.000000,0.000000,0.000000,0.000000,0.000000,0.000000,0.000000,0.000000,1770371749.495918,0.000000
242.000000,11744.299441,10458.940024,-25275.598499,-4234.873263,-15486.182628,16893.761384,-12400.814879,-19706.303740,11722.662952,14148.274261,4107.915355,702.582383,8890.853392,15659.989793,-24610.701157,-8538.142864,-0.004000,-0.010000,1.006000,192.000000,0.000000,0.000000,0.000000,0.000000,0.000000,0.000000,0.000000,0.000000,0.000000,1770371749.495930,0.000000
244.000000,11729.457883,10442.690306,-25285.075639,-4241.601138,-15502.544105,16893.739032,-12409.956743,-19720.452395,11680.820487,14119.216993,4082.836697,667.624255,8866.534694,15632.005409,-24631.711797,-8545.206016,-0.004000,-0.010000,1.006000,192.000000,0.000000,0.000000,127.500000,96.000000,15.500000,72.000000,0.000000,0.000000,0.000000,1770371749.495943,0.000000
246.000000,11742.980688,10457.621271,-25273.162159,-4238.561301,-15509.428443,16903.216172,-12398.847926,-19705.677891,11698.299551,14129.029409,4090.950381,680.655322,8877.598808,15642.175453,-24616.669073,-8525.871757,-0.004000,-0.010000,1.006000,192.000000,0.000000,0.000000,0.000000,0.000000,0.000000,0.000000,0.000000,0.000000,0.000000,1770371749.495956,0.000000
248.000000,11724.629906,10439.002268,-25297.838485,-4249.334842,-15527.779225,16890.185105,-12419.880917,-19728.431967,11687.548362,14127.509490,4084.982465,676.430842,8871.005043,15642.443674,-24626.816765,-8526.050571,-0.004000,-0.010000,1.006000,192.000000,0.000000,0.000000,0.000000,0.000000,0.000000,0.000000,0.000000,0.000000,0.000000,1770371749.495968,0.000000
250.000000,11735.068170,10448.054725,-25288.182531,-4256.800325,-15522.683027,16884.396003,-12404.927600,-19718.977179,11682.563923,14119.641676,4080.936799,665.165563,8856.610519,15633.011238,-24633.119957,-8529.403332,-0.004000,-0.010000,1.006000,192.000000,0.000000,0.000000,0.000000,0.000000,0.000000,0.000000,0.000000,0.000000,0.000000,1770371749.495983,0.000000
252.000000,11724.831071,10433.928422,-25296.922063,-4269.719633,-15523.264172,16868.705078,-12411.275495,-19729.817775,11697.964275,14128.738836,4081.249724,671.982845,8885.779546,15636.229889,-24620.334759,-8527.257565,-0.004000,-0.010000,1.006000,192.000000,0.000000,0.000000,0.000000,0.000000,0.000000,0.000000,0.000000,0.000000,0.000000,1770371749.495996,0.000000
254.000000,11729.212013,10440.656297,-25295.245683,-4267.193886,-15513.407053,16871.163770,-12410.560240,-19724.743929,11676.417193,14102.743757,4068.173953,647.842961,8853.458924,15611.777081,-24646.061617,-8559.444077,-0.004000,-0.010000,1.006000,192.000000,0.000000,0.000000,127.500000,104.000000,15.500000,88.000000,0.000000,0.000000,0.000000,1770371749.496008,0.000000
0.000000,11764.572473,10476.530847,-25262.612136,-4245.333880,-15489.825963,16890.699195,-12386.107431,-19688.981138,11707.955504,14130.839900,4091.531526,681.370578,8882.225619,15627.512709,-24627.621427,-8550.659841,-0.004000,-0.010000,1.006000,192.000000,0.000000,0.000000,0.000000,0.000000,0.000000,0.000000,0.000000,0.000000,0.000000,1770371749.496021,0.000000
2.000000,11764.617177,10476.284978,-25270.189377,-4243.411630,-15483.522771,16897.672939,-12400.077271,-19694.837295,11722.260621,14142.462807,4106.842471,694.803976,8914.814462,15643.762427,-24625.408605,-8551.598615,-0.004000,-0.010000,1.006000,192.000000,0.000000,0.000000,0.000000,0.000000,0.000000,0.000000,0.000000,0.000000,0.000000,1770371749.496036,0.000000
4.000000,11783.683215,10494.702815,-25253.872604,-4234.001545,-15467.295404,16906.479526,-12384.833382,-19673.312565,11728.876737,14148.386019,4116.967811,701.263631,8904.175032,15648.948032,-24627.979055,-8555.286652,-0.004000,-0.010000,1.006000,192.000000,0.000000,0.000000,0.000000,0.000000,0.000000,0.000000,0.000000,0.000000,0.000000,1770371749.496049,0.000000
6.000000,11777.290616,10486.566780,-25263.841482,-4234.403877,-15468.636509,16906.121898,-12394.534039,-19682.722650,11752.010793,14164.434572,4127.137855,718.832102,8914.143910,15670.048078,-24605.716718,-8534.030144,-0.004000,-0.010000,1.006000,192.000000,0.000000,0.000000,0.000000,0.000000,0.000000,0.000000,0.000000,0.000000,0.000000,1770371749.496062,0.000000
8.000000,11763.544293,10472.261664,-25275.956127,-4237.801342,-15464.188512,16908.625294,-12404.547620,-19698.637092,11723.847595,14145.256775,4109.189404,695.496880,8891.009854,15654.737133,-24618.904247,-8537.561719,-0.004000,-0.010000,1.006000,192.000000,0.000000,0.000000,127.500000,104.000000,15.500000,72.000000,0.000000,0.000000,0.000000,1770371749.496075,0.000000
10.000000,11752.368421,10466.114934,-25268.602403,-4240.304737,-15467.496570,16906.211305,-12397.439766,-19702.906275,11721.388903,14141.121702,4105.031980,694.334590,8902.811575,15646.802264,-24593.445610,-8517.623963,-0.004000,-0.010000,1.006000,192.000000,0.000000,0.000000,0.000000,0.000000,0.000000,0.000000,0.000000,0.000000,0.000000,1770371749.496088,0.000000
12.000000,11715.465691,10429.860405,-25302.733517,-4254.408688,-15498.274922,16888.665186,-12421.780815,-19738.043217,11694.723272,14118.814661,4078.589866,668.227752,8875.140116,15635.335819,-24605.135573,-8517.534556,-0.004000,-0.010000,1.006000,192.000000,0.000000,0.000000,0.000000,0.000000,0.000000,0.000000,0.000000,0.000000,0.000000,1770371749.496101,0.000000
14.000000,11720.628944,10440.052800,-25295.670366,-4252.374679,-15515.195193,16892.442631,-12410.202612,-19725.369778,11668.996414,14109.270466,4065.827020,658.370633,8865.841790,15625.054017,-24625.498012,-8513.734760,-0.004000,-0.010000,1.006000,192.000000,0.000000,0.000000,0.000000,0.000000,0.000000,0.000000,0.000000,0.000000,0.000000,1770371749.496114,0.000000
16.000000,11722.104159,10436.990611,-25305.326319,-4263.416441,-15532.182519,16886.139439,-12414.337684,-19728.923706,11685.961388,14119.619324,4075.102994,670.127651,8870.200380,15626.037493,-24622.502878,-8503.654123,-0.004000,-0.010000,1.006000,192.000000,0.000000,0.000000,0.000000,0.000000,0.000000,0.000000,0.000000,0.000000,0.000000,1770371749.496127,0.000000
18.000000,11721.657124,10430.799178,-25309.215523,-4260.018976,-15527.622763,16884.530113,-12419.165661,-19734.533994,11672.684452,14106.945885,4066.229351,652.581531,8854.017717,15613.006426,-24645.748692,-8525.871757,-0.004000,-0.010000,1.006000,192.000000,0.000000,0.000000,127.500000,104.000000,15.500000,56.000000,0.000000,0.000000,0.000000,1770371749.496140,0.000000
20.000000,11735.179929,10446.288937,-25285.276805,-4260.577769,-15506.790937,16894.789564,-12402.670074,-19718.530145,11700.378263,14117.831185,4076.846430,664.584418,8867.227598,15622.014179,-24626.682654,-8523.882452,-0.004000,-0.010000,1.006000,192.000000,0.000000,0.000000,0.000000,0.000000,0.000000,0.000000,0.000000,0.000000,0.000000,1770371749.496152,0.000000
22.000000,11720.316019,10431.939117,-25298.285520,-4267.707976,-15501.493573,16883.613692,-12420.104435,-19737.976162,11697.830164,14113.964333,4073.471317,656.202514,8886.427747,15626.037493,-24623.061672,-8535.930042,-0.004000,-0.010000,1.006000,192.000000,0.000000,0.000000,0.000000,0.000000,0.000000,0.000000,0.000000,0.000000,0.000000,1770371749.496165,0.000000
24.000000,11737.772732,10448.278242,-25271.619889,-4259.259016,-15485.579131,16885.178314,-12398.937333,-19717.032578,11698.925400,14112.958504,4076.444099,656.470735,8878.224656,15617.722645,-24622.949913,-8550.391620,-0.004000,-0.010000,1.006000,192.000000,0.000000,0.000000,0.000000,0.000000,0.000000,0.000000,0.000000,0.000000,0.000000,1770371749.496178,0.000000
26.000000,11746.422857,10454.469675,-25266.791912,-4255.816848,-15481.131134,16876.215264,-12397.976207,-19707.868362,11726.753321,14134.639696,4095.130157,681.057654,8905.471433,15628.026799,-24605.604959,-8552.805609,-0.004000,-0.010000,1.006000,192.000000,0.000000,0.000000,0.000000,0.000000,0.000000,0.000000,0.000000,0.000000,0.000000,1770371749.496193,0.000000
28.000000,11757.263453,10467.836019,-25261.874528,-4247.837275,-15475.498495,16886.698232,-12396.500992,-19694.949054,11713.342275,14131.532804,4100.606334,675.469717,8892.641532,15619.868412,-24626.950875,-8578.465411,-0.003000,-0.012000,1.006000,192.000000,127.500000,120.000000,127.500000,72.000000,15.500000,56.000000,0.000000,0.000000,0.000000,1770371749.496206,0.000000
30.000000,11775.703642,10486.812650,-25240.394502,-4237.421362,-15461.394544,16899.192858,-12378.887818,-19672.306737,11740.164368,14157.997269,4124.790922,703.543508,8921.162357,15645.394104,-24609.181238,-8562.618025,-0.003000,-0.012000,1.006000,192.000000,0.000000,0.000000,0.000000,0.000000,0.000000,0.000000,0.000000,0.000000,0.000000,1770371749.496219,0.000000
32.000000,11761.331470,10467.388984,-25261.673362,-4241.735249,-15467.183646,16895.393061,-12397.171545,-19692.177438,11744.277089,14155.382115,4126.109675,701.688314,8953.505332,15641.102569,-24608.622445,-8557.074792,-0.003000,-0.012000,1.006000,192.000000,0.000000,0.000000,0.000000,0.000000,0.000000,0.000000,0.000000,0.000000,0.000000,1770371749.496231,0.000000
34.000000,11757.106990,10465.734955,-25260.466368,-4236.303775,-15475.587902,16902.992654,-12386.442707,-19687.550627,11726.954487,14139.199452,4115.604355,692.524098,8904.867936,15639.448540,-24615.462079,-8549.519902,-0.003000,-0.012000,1.006000,192.000000,0.000000,0.000000,0.000000,0.000000,0.000000,0.000000,0.000000,0.000000,0.000000,1770371749.496244,0.000000
36.000000,11732.207147,10441.326850,-25281.432305,-4245.222121,-15500.957131,16885.960625,-12399.317312,-19706.616665,11721.031275,14138.886528,4108.474148,697.374427,8903.124500,15631.491319,-24603.235674,-8528.486911,-0.003000,-0.012000,1.006000,192.000000,0.000000,0.000000,0.000000,0.000000,0.000000,0.000000,0.000000,0.000000,0.000000,1770371749.496257,0.000000
38.000000,11706.703807,10420.785596,-25297.257340,-4255.727441,-15518.793824,16879.322157,-12414.740016,-19728.476671,11675.567827,14106.252981,4078.343997,661.075194,8851.067287,15587.123106,-24626.235619,-8536.511187,-0.002500,-0.014000,1.006000,192.000000,127.500000,120.000000,127.500000,64.000000,15.500000,56.000000,0.000000,0.000000,0.000000,1770371749.496270,0.000000
40.000000,11708.648408,10422.998419,-25290.328299,-4257.470877,-15515.910449,16887.346433,-12406.492222,-19723.626342,11673.064431,14102.162612,4070.252665,662.170429,8842.573624,15602.121127,-24610.991730,-8510.203184,-0.002500,-0.014000,1.006000,192.000000,0.000000,0.000000,0.000000,0.000000,0.000000,0.000000,0.000000,0.000000,0.000000,1770371749.496283,0.000000
42.000000,11696.310246,10404.357064,-25314.244665,-4265.539857,-15522.057178,16893.783735,-12423.233679,-19743.273526,11669.309338,14096.954655,4061.222561,650.815743,8848.295671,15598.254275,-24622.257009,-8503.855288,-0.002500,-0.014000,1.006000,192.000000,0.000000,0.000000,0.000000,0.000000,0.000000,0.000000,0.000000,0.000000,0.000000,1770371749.496296,0.000000
44.000000,11715.644505,10425.725332,-25295.022165,-4259.773107,-15513.205887,16896.734166,-12403.877068,-19723.246363,11673.243245,14092.998397,4065.268226,649.832267,8842.283051,15599.707139,-24634.461061,-8522.094312,-0.002500,-0.014000,1.006000,192.000000,0.000000,0.000000,0.000000,0.000000,0.000000,0.000000,0.000000,0.000000,0.000000,1770371749.496309,0.000000
46.000000,11721.120682,10428.631059,-25289.143656,-4262.857647,-15506.902696,16886.005328,-12404.994655,-19721.324113,11702.971065,14112.399711,4079.774508,668.004235,8874.894246,15607.820822,-24620.781794,-8534.723048,-0.002500,-0.014000,1.006000,192.000000,0.000000,0.000000,0.000000,0.000000,0.000000,0.000000,0.000000,0.000000,0.000000,1770371749.496322,0.000000
48.000000,11730.933098,10437.795274,-25279.130075,-4257.649691,-15491.412937,16892.599093,-12403.966475,-19715.132679,11693.963312,14104.688359,4078.835735,660.024662,8872.010871,15602.612865,-24635.869221,-8565.680214,-0.003250,-0.015000,1.006000,192.000000,127.500000,112.000000,127.500000,64.000000,15.500000,56.000000,0.000000,0.000000,0.000000,1770371749.496335,0.000000
50.000000,11752.323717,10462.471600,-25250.139862,-4247.077316,-15466.490742,16899.796355,-12388.946103,-19697.877133,11722.551194,14132.851557,4095.979523,688.813709,8910.120596,15623.377636,-24607.214285,-8559.377022,-0.003250,-0.015000,1.006000,192.000000,0.000000,0.000000,0.000000,0.000000,0.000000,0.000000,0.000000,0.000000,0.000000,1770371749.496348,0.000000
52.000000,11751.787275,10454.872007,-25262.232156,-4248.351365,-15450.576299,16903.842020,-12407.810975,-19710.394110,11733.011810,14133.946792,4097.722959,685.662113,8916.468491,15624.718741,-24597.021889,-8561.634548,-0.003250,-0.015000,1.006000,192.000000,0.000000,0.000000,0.000000,0.000000,0.000000,0.000000,0.000000,0.000000,0.000000,1770371749.496361,0.000000
54.000000,11768.662842,10472.015795,-25240.394502,-4240.014164,-15437.925212,16913.006236,-12390.376614,-19687.997662,11739.493816,14139.311211,4109.770550,688.053750,8922.749331,15623.332932,-24595.189046,-8561.545141,-0.003250,-0.015000,1.006000,192.000000,0.000000,0.000000,0.000000,0.000000,0.000000,0.000000,0.000000,0.000000,0.000000,1770371749.496374,0.000000
56.000000,11767.165275,10472.105202,-25238.069920,-4237.801342,-15442.283802,16901.472736,-12389.683710,-19688.332938,11754.223615,14157.326717,4124.209776,708.885575,8944.631689,15642.957764,-24579.475770,-8546.703583,-0.003250,-0.015000,1.006000,192.000000,0.000000,0.000000,0.000000,0.000000,0.000000,0.000000,0.000000,0.000000,0.000000,1770371749.496387,0.000000
58.000000,11762.918444,10464.930292,-25249.357551,-4238.047211,-15458.824093,16889.268683,-12392.321216,-19697.094822,11737.638621,14142.328697,4115.425541,691.339456,8933.791093,15629.032627,-24608.309520,-8561.366327,-0.002625,-0.013500,1.007000,192.000000,127.500000,120.000000,127.500000,80.000000,15.500000,64.000000,0.000000,0.000000,0.000000,1770371749.976311,0.000000
60.000000,11756.749363,10463.745649,-25251.212746,-4239.544778,-15483.366309,16882.361994,-12378.798411,-19690.434002,11740.991383,14144.452112,4112.519814,699.564898,8921.810558,15629.278496,-24607.549561,-8547.620004,-0.002625,-0.013500,1.007000,192.000000,0.000000,0.000000,0.000000,0.000000,0.000000,0.000000,0.000000,0.000000,0.000000,1770371749.976399,0.000000
62.000000,11724.585202,10429.413370,-25291.244720,-4254.945130,-15511.462451,16870.493218,-12408.302713,-19724.252191,11711.464728,14123.262659,4095.130157,680.118880,8871.630892,15615.062787,-24624.492183,-8541.674440,-0.002625,-0.013500,1.007000,192.000000,0.000000,0.000000,0.000000,0.000000,0.000000,0.000000,0.000000,0.000000,0.000000,1770371749.976448,0.000000
64.000000,11715.644505,10423.020771,-25288.070773,-4259.929569,-15515.865745,16876.572892,-12404.078234,-19725.593296,11681.938074,14101.268542,4075.818250,658.124764,8861.416145,15586.094926,-24632.382349,-8533.761923,-0.002625,-0.013500,1.007000,192.000000,0.000000,0.000000,0.000000,0.000000,0.000000,0.000000,0.000000,0.000000,0.000000,1770371749.976498,0.000000
66.000000,11693.248057,10405.094672,-25304.387546,-4267.193886,-15527.712170,16876.707003,-12418.293943,-19747.341543,11676.819524,14102.743757,4064.932950,656.806011,8860.566778,15588.643025,-24609.516514,-8511.365475,-0.002625,-0.013500,1.007000,192.000000,0.000000,0.000000,0.000000,0.000000,0.000000,0.000000,0.000000,0.000000,0.000000,1770371749.976549,0.000000
68.000000,11688.017748,10400.087881,-25317.016282,-4272.759470,-15524.851146,16884.954796,-12428.262821,-19758.226843,11645.929414,14079.252074,4039.384906,628.329888,8817.025580,15568.347641,-24629.878954,-8531.258527,-0.002625,-0.013500,1.007000,192.000000,0.000000,0.000000,0.000000,0.000000,0.000000,0.000000,0.000000,0.000000,0.000000,1770371749.976611,0.000000
70.000000,11710.190679,10424.116006,-25296.989119,-4273.787650,-15507.036806,16906.904209,-12405.888725,-19731.270639,11669.443449,14098.563981,4051.633662,648.826438,8837.611537,15600.422394,-24613.182201,-8525.290611,-0.002000,-0.008000,1.014000,192.000000,127.500000,120.000000,127.500000,96.000000,15.500000,88.000000,0.000000,0.000000,0.000000,1770371749.976662,0.000000
72.000000,11705.161536,10417.164614,-25306.063927,-4266.612740,-15502.700568,16890.118049,-12415.723493,-19736.679761,11675.567827,14108.666969,4060.574360,657.588322,8854.352993,15610.368921,-24619.999483,-8542.188530,-0.002000,-0.008000,1.014000,192.000000,0.000000,0.000000,0.000000,0.000000,0.000000,0.000000,0.000000,0.000000,0.000000,1770371749.976712,0.000000
74.000000,11729.860214,10438.309364,-25279.286537,-4256.397993,-15485.713242,16885.491238,-12394.466984,-19708.248342,11686.430775,14110.253943,4074.432442,667.847773,8866.221770,15581.870446,-24625.319198,-8558.035917,-0.002000,-0.008000,1.014000,192.000000,0.000000,0.000000,0.000000,0.000000,0.000000,0.000000,0.000000,0.000000,0.000000,1770371749.976760,0.000000
76.000000,11727.468577,10434.017829,-25272.603365,-4262.924703,-15490.675329,16863.005383,-12396.545696,-19709.522392,11717.678513,14119.485214,4093.565535,687.941991,8893.088566,15590.609979,-24610.969378,-8561.701603,-0.002000,-0.008000,1.014000,192.000000,0.000000,0.000000,0.000000,0.000000,0.000000,0.000000,0.000000,0.000000,0.000000,1770371749.976808,0.000000
78.000000,11729.927269,10433.615498,-25268.624755,-4262.142391,-15491.323530,16859.518511,-12400.077271,-19713.478650,11695.684397,14101.223838,4084.557782,666.730185,8886.450098,15577.243635,-24631.488279,-8588.143717,-0.002000,-0.008000,1.014000,192.000000,0.000000,0.000000,0.000000,0.000000,0.000000,0.000000,0.000000,0.000000,0.000000,1770371749.976856,0.000000
80.000000,11748.792142,10456.056649,-25248.888165,-4251.234740,-15484.327434,16868.995651,-12384.945140,-19693.809115,11718.460824,14122.167423,4100.807500,684.566877,8902.431596,15606.636179,-24611.706985,-8571.402260,-0.002000,-0.010000,1.008000,192.000000,127.500000,120.000000,127.500000,88.000000,15.500000,64.000000,0.000000,0.000000,0.000000,1770371749.976871,0.000000
82.000000,11732.140092,10433.727257,-25272.692772,-4257.783801,-15490.988253,16865.553482,-12404.905248,-19713.635112,11716.538574,14114.992513,4098.684084,678.420148,8915.507366,15599.215400,-24614.523305,-8564.339109,-0.002000,-0.010000,1.008000,192.000000,0.000000,0.000000,0.000000,0.000000,0.000000,0.000000,0.000000,0.000000,0.000000,1770371749.976883,0.000000
84.000000,11742.176025,10444.634908,-25265.763732,-4251.100630,-15489.356576,16868.280395,-12391.024815,-19700.067604,11711.263563,14106.074167,4096.001875,670.105299,8887.008892,15592.867505,-24620.357111,-8558.237083,-0.002000,-0.010000,1.008000,192.000000,0.000000,0.000000,0.000000,0.000000,0.000000,0.000000,0.000000,0.000000,0.000000,1770371749.976895,0.000000
86.000000,11723.065284,10426.664105,-25280.202959,-4257.515580,-15502.477050,16858.736200,-12400.993693,-19715.110328,11719.645467,14112.913801,4096.270096,680.655322,8899.101186,15599.863601,-24604.956759,-8535.147731,-0.002000,-0.010000,1.008000,192.000000,0.000000,0.000000,0.000000,0.000000,0.000000,0.000000,0.000000,0.000000,0.000000,1770371749.976906,0.000000
88.000000,11708.089615,10412.157823,-25292.831694,-4259.996624,-15505.114556,16852.835340,-12412.974228,-19729.773072,11683.748565,14090.517353,4073.359558,650.748688,8880.057499,15564.771362,-24621.005311,-8539.819245,-0.002000,-0.010000,1.008000,192.000000,0.000000,0.000000,0.000000,0.000000,0.000000,0.000000,0.000000,0.000000,0.000000,1770371749.976918,0.000000
90.000000,11709.274257,10414.482405,-25286.260281,-4261.024804,-15503.907562,16860.300822,-12403.474737,-19724.676874,11689.515315,14096.664083,4072.733709,658.795316,8870.513305,15569.264063,-24600.508761,-8522.921327,-0.002000,-0.010000,1.008000,192.000000,127.500000,120.000000,127.500000,88.000000,15.500000,64.000000,0.000000,0.000000,0.000000,1770371749.976938,0.000000
92.000000,11688.375376,10394.209372,-25317.284503,-4271.887752,-15521.744254,16862.223072,-12423.792472,-19747.565061,11669.264635,14085.175286,4058.629758,646.568912,8849.994403,15564.704307,-24615.439727,-8523.703638,-0.002000,-0.010000,1.008000,192.000000,0.000000,0.000000,0.000000,0.000000,0.000000,0.000000,0.000000,0.000000,0.000000,1770371749.976950,0.000000
94.000000,11702.680493,10408.469785,-25308.746136,-4273.139450,-15520.403149,16868.906244,-12409.040321,-19731.985895,11661.754449,14078.246245,4055.478162,638.075249,8840.830188,15568.817028,-24638.462024,-8527.659896,-0.002000,-0.010000,1.008000,192.000000,0.000000,0.000000,0.000000,0.000000,0.000000,0.000000,0.000000,0.000000,0.000000,1770371749.976962,0.000000
96.000000,11710.727121,10417.544594,-25303.337014,-4267.551514,-15518.659713,16870.157942,-12405.061710,-19721.659389,11686.833106,14099.055719,4069.939741,658.996482,8852.564854,15579.389403,-24627.822593,-8520.641449,-0.002000,-0.010000,1.008000,192.000000,0.000000,0.000000,0.000000,0.000000,0.000000,0.000000,0.000000,0.000000,0.000000,1770371749.976974,0.000000
98.000000,11727.312115,10434.218995,-25287.221406,-4259.840162,-15501.404166,16888.396965,-12400.747824,-19708.337749,11678.607664,14095.702958,4077.628741,659.935255,8860.857351,15567.610033,-24644.944029,-8534.901862,-0.002000,-0.010000,1.008000,192.000000,0.000000,0.000000,0.000000,0.000000,0.000000,0.000000,0.000000,0.000000,0.000000,1770371749.976986,0.000000
100.000000,11754.760057,10465.399678,-25249.223441,-4247.054964,-15479.700623,16904.110241,-12378.507838,-19677.537045,11716.091539,14127.509490,4107.378913,692.412340,8900.486994,15603.484583,-24616.870238,-8519.635620,-0.004000,-0.010000,1.000000,192.000000,127.500000,112.000000,127.500000,88.000000,15.500000,32.000000,0.000000,0.000000,0.000000,1770371749.976998,0.000000
102.000000,11753.553063,10460.169370,-25263.148578,-4242.741077,-15473.576245,16903.529096,-12392.209457,-19687.260054,11721.925345,14136.293726,4117.593660,700.548375,8913.540413,15613.676979,-24612.355186,-8519.166233,-0.004000,-0.010000,1.000000,192.000000,0.000000,0.000000,0.000000,0.000000,0.000000,0.000000,0.000000,0.000000,0.000000,1770371749.977010,0.000000
104.000000,11775.346014,10477.290806,-25250.653952,-4232.839254,-15474.313852,16914.548506,-12377.256140,-19668.372830,11733.704714,14137.120740,4124.075666,702.850604,8912.221660,15610.860659,-24618.457212,-8519.434454,-0.004000,-0.010000,1.000000,192.000000,0.000000,0.000000,0.000000,0.000000,0.000000,0.000000,0.000000,0.000000,0.000000,1770371749.977022,0.000000
106.000000,11758.179874,10464.147981,-25266.948374,-4234.672098,-15484.640358,16898.812878,-12385.392175,-19682.946167,11744.478255,14152.476389,4128.277794,718.027439,8912.333418,15629.613773,-24605.247331,-8506.202222,-0.004000,-0.010000,1.000000,192.000000,0.000000,0.000000,0.000000,0.000000,0.000000,0.000000,0.000000,0.000000,0.000000,1770371749.977033,0.000000
108.000000,11746.936947,10451.139265,-25277.900729,-4243.098705,-15488.931893,16890.207456,-12396.769213,-19699.687624,11708.715464,14128.023580,4105.791939,687.159680,8895.726072,15604.780984,-24628.247276,-8524.441245,-0.004000,-0.010000,1.000000,192.000000,0.000000,0.000000,0.000000,0.000000,0.000000,0.000000,0.000000,0.000000,0.000000,1770371749.977045,0.000000
110.000000,11746.042877,10448.457056,-25265.920194,-4249.468952,-15490.094184,16878.539846,-12387.806164,-19696.446621,11721.835938,14122.055664,4107.870651,688.210212,8895.882534,15600.802374,-24610.589398,-8520.753207,-0.004000,-0.010000,1.000000,192.000000,0.000000,0.000000,127.500000,88.000000,15.500000,56.000000,0.000000,0.000000,0.000000,1770371749.977057,0.000000
112.000000,11707.933153,10410.660256,-25296.117401,-4266.612740,-15503.169954,16864.949985,-12416.461100,-19734.779863,11698.388958,14099.525106,4087.754081,666.797241,8869.596883,15583.524476,-24606.968416,-8523.815396,-0.004000,-0.010000,1.000000,192.000000,0.000000,0.000000,0.000000,0.000000,0.000000,0.000000,0.000000,0.000000,0.000000,1770371749.977068,0.000000
114.000000,11696.869039,10403.708864,-25294.306909,-4268.646749,-15502.566457,16864.368840,-12411.543716,-19738.266735,11670.561036,14078.425059,4061.982520,643.171447,8847.446304,15577.131877,-24611.014081,-8524.418893,-0.004000,-0.010000,1.000000,192.000000,0.000000,0.000000,0.000000,0.000000,0.000000,0.000000,0.000000,0.000000,0.000000,1770371749.977080,0.000000
116.000000,11681.871019,10389.336692,-25308.343805,-4271.597179,-15510.322512,16849.214357,-12417.556336,-19748.101502,11677.646539,14085.532914,4058.361537,650.681633,8851.134342,15586.027871,-24594.876122,-8514.204146,-0.004000,-0.010000,1.000000,192.000000,0.000000,0.000000,0.000000,0.000000,0.000000,0.000000,0.000000,0.000000,0.000000,1770371749.977092,0.000000
118.000000,11685.000263,10391.080128,-25318.133869,-4276.179287,-15519.576135,16841.592412,-12420.506766,-19748.682648,11650.109190,14067.249187,4045.062249,629.715697,8836.382191,15555.495388,-24630.035416,-8546.457713,-0.004000,-0.010000,1.000000,192.000000,0.000000,0.000000,0.000000,0.000000,0.000000,0.000000,0.000000,0.000000,0.000000,1770371749.977103,0.000000
120.000000,11708.670760,10414.549460,-25291.691755,-4272.848877,-15522.347751,16846.062761,-12398.087966,-19720.720615,11675.545475,14085.063527,4062.273093,654.950816,8855.023546,15570.269891,-24630.616561,-8550.101048,-0.004000,-0.016000,1.004000,192.000000,127.500000,112.000000,127.500000,64.000000,15.500000,48.000000,0.000000,0.000000,0.000000,1770371749.977115,0.000000
122.000000,11705.697978,10408.894468,-25302.510000,-4274.927589,-15527.890984,16848.364991,-12413.287152,-19728.297857,11678.697071,14088.729213,4070.587941,660.494049,8845.211130,15561.887987,-24644.005256,-8563.489743,-0.004000,-0.016000,1.004000,192.000000,0.000000,0.000000,0.000000,0.000000,0.000000,0.000000,0.000000,0.000000,0.000000,1770371749.977128,0.000000
124.000000,11734.487025,10437.348239,-25283.220444,-4260.488362,-15511.998893,16871.588453,-12391.784774,-19697.921836,11686.140202,14094.361853,4086.457680,666.752537,8860.678537,15579.858789,-24649.906117,-8570.999929,-0.004000,-0.016000,1.004000,192.000000,0.000000,0.000000,0.000000,0.000000,0.000000,0.000000,0.000000,0.000000,0.000000,1770371749.977140,0.000000
126.000000,11744.947641,10446.914786,-25283.466313,-4255.436868,-15506.098033,16876.237616,-12391.762423,-19694.546723,11725.300458,14124.447301,4109.725846,692.367636,8885.533677,15602.702272,-24626.749709,-8552.827961,-0.004000,-0.016000,1.004000,192.000000,0.000000,0.000000,0.000000,0.000000,0.000000,0.000000,0.000000,0.000000,0.000000,1770371749.977152,0.000000
128.000000,11738.130359,10441.103332,-25288.897787,-4248.217255,-15508.690835,16879.433916,-12395.003425,-19700.425232,11706.927324,14110.902144,4099.846375,676.699063,8870.535656,15587.950121,-24642.619448,-8564.115592,-0.004000,-0.016000,1.004000,192.000000,0.000000,0.000000,0.000000,0.000000,0.000000,0.000000,0.000000,0.000000,0.000000,1770371749.977164,0.000000
130.000000,11751.653165,10457.107181,-25269.541177,-4239.544778,-15497.738480,16884.753631,-12380.944178,-19685.337804,11720.651295,14128.716484,4104.517890,693.194651,8885.310159,15615.062787,-24626.235619,-8545.362478,-0.002000,-0.016000,1.002000,192.000000,127.500000,120.000000,127.500000,64.000000,15.500000,40.000000,0.000000,0.000000,0.000000,1770371749.977176,0.000000
132.000000,11731.223670,10434.107236,-25286.439095,-4251.949996,-15495.838582,16877.511666,-12402.804184,-19711.645807,11718.080845,14130.661086,4097.030055,685.483299,8878.247008,15609.139575,-24622.279361,-8544.110780,-0.002000,-0.016000,1.002000,192.000000,0.000000,0.000000,0.000000,0.000000,0.000000,0.000000,0.000000,0.000000,0.000000,1770371749.977188,0.000000
134.000000,11735.649316,10438.175254,-25270.077618,-4255.570979,-15472.972747,16895.102488,-12396.433937,-19709.276522,11704.759205,14112.042083,4085.854183,666.908999,8880.102203,15603.216362,-24618.278398,-8543.306117,-0.002000,-0.016000,1.002000,192.000000,0.000000,0.000000,0.000000,0.000000,0.000000,0.000000,0.000000,0.000000,0.000000,1770371749.977199,0.000000
136.000000,11722.282973,10425.077131,-25280.068848,-4260.354252,-15475.453791,16886.184142,-12408.950914,-19723.648694,11718.974914,14121.653333,4087.776433,674.262723,8890.316950,15615.599229,-24587.745915,-8522.742513,-0.002000,-0.016000,1.002000,192.000000,0.000000,0.000000,0.000000,0.000000,0.000000,0.000000,0.000000,0.000000,0.000000,1770371749.977211,0.000000
138.000000,11706.614400,10411.129643,-25297.190284,-4262.254150,-15478.046593,16883.010195,-12422.518423,-19738.847880,11684.285007,14101.402652,4064.687081,646.658319,8879.543409,15587.391327,-24600.776982,-8535.013620,-0.002000,-0.016000,1.002000,192.000000,0.000000,0.000000,0.000000,0.000000,0.000000,0.000000,0.000000,0.000000,0.000000,1770371749.977223,0.000000
140.000000,11717.946734,10425.792387,-25284.114514,-4262.522371,-15481.153486,16877.846942,-12407.118071,-19721.458223,11694.455051,14105.314208,4067.570456,656.023700,8874.715432,15593.426298,-24582.381497,-8527.190510,-0.002000,-0.015000,1.003000,192.000000,127.500000,120.000000,127.500000,72.000000,15.500000,48.000000,0.000000,0.000000,0.000000,1770371749.977234,0.000000
142.000000,11705.742682,10410.660256,-25300.587750,-4274.480554,-15488.618969,16851.918918,-12420.551469,-19735.606877,11687.615417,14102.900219,4067.995139,657.208342,8871.586188,15586.609016,-24586.203645,-8551.553911,-0.002000,-0.015000,1.003000,192.000000,0.000000,0.000000,0.000000,0.000000,0.000000,0.000000,0.000000,0.000000,0.000000,1770371749.977246,0.000000
144.000000,11724.316981,10429.011038,-25282.974575,-4273.139450,-15485.042689,16849.169654,-12402.848888,-19718.261924,11688.017748,14098.720443,4072.443136,653.900284,8861.147924,15582.675109,-24599.793506,-8579.024205,-0.002000,-0.015000,1.003000,192.000000,0.000000,0.000000,0.000000,0.000000,0.000000,0.000000,0.000000,0.000000,0.000000,1770371749.977258,0.000000
146.000000,11732.140092,10434.531919,-25285.075639,-4272.647711,-15494.430422,16846.219223,-12399.406719,-19711.466993,11711.576487,14120.267525,4087.374102,676.855526,8880.392776,15595.013272,-24597.133648,-8580.924103,-0.002000,-0.015000,1.003000,192.000000,0.000000,0.000000,0.000000,0.000000,0.000000,0.000000,0.000000,0.000000,0.000000,1770371749.977270,0.000000
148.000000,11745.819360,10449.708754,-25283.980403,-4261.605950,-15490.474163,16862.066610,-12397.015082,-19702.347482,11695.997321,14114.545478,4091.084491,668.294807,8874.849543,15590.386461,-24628.470794,-8595.944476,-0.002000,-0.015000,1.003000,192.000000,0.000000,0.000000,0.000000,0.000000,0.000000,0.000000,0.000000,0.000000,0.000000,1770371749.977281,0.000000
150.000000,11766.360613,10469.467696,-25263.193281,-4246.026784,-15485.065041,16873.130724,-12379.133687,-19681.538007,11726.619211,14137.344258,4111.201061,694.580459,8891.389834,15609.206630,-24615.350320,-8575.805554,-0.003000,-0.012500,1.005500,192.000000,127.500000,112.000000,127.500000,88.000000,15.500000,64.000000,0.000000,0.000000,0.000000,1770371749.977293,0.000000
152.000000,11758.917482,10464.706774,-25278.325412,-4242.830484,-15493.335187,16876.349375,-12394.310521,-19694.345557,11729.413179,14138.953583,4113.637401,696.770930,8904.063273,15616.359188,-24620.692387,-8570.217618,-0.003000,-0.012500,1.005500,192.000000,0.000000,0.000000,0.000000,0.000000,0.000000,0.000000,0.000000,0.000000,0.000000,1770371749.977305,0.000000
154.000000,11763.611348,10469.065364,-25263.237985,-4233.599214,-15493.782222,16883.546637,-12380.497143,-19683.080278,11725.076941,14142.529862,4113.793864,696.927392,8895.793128,15631.446616,-24629.566029,-8567.513057,-0.003000,-0.012500,1.005500,192.000000,0.000000,0.000000,0.000000,0.000000,0.000000,0.000000,0.000000,0.000000,0.000000,1770371749.977319,0.000000
156.000000,11754.313022,10459.409411,-25269.362363,-4238.315432,-15499.370158,16882.451401,-12387.806164,-19693.362080,11736.476330,14150.107104,4117.236032,706.002200,8889.758157,15632.050113,-24611.259951,-8547.977632,-0.003000,-0.012500,1.005500,192.000000,0.000000,0.000000,0.000000,0.000000,0.000000,0.000000,0.000000,0.000000,0.000000,1770371749.977331,0.000000
158.000000,11739.046781,10440.343373,-25279.778275,-4247.211426,-15493.804573,16878.472791,-12400.300789,-19711.824621,11702.591086,14121.921554,4094.258439,675.402662,8867.518171,15605.183316,-24632.918791,-8555.979557,-0.003000,-0.012500,1.005500,192.000000,0.000000,0.000000,0.000000,0.000000,0.000000,0.000000,0.000000,0.000000,0.000000,1770371749.977343,0.000000
160.000000,11737.415104,10437.951736,-25267.775389,-4257.336766,-15486.607312,16883.390174,-12391.583609,-19709.902371,11708.693112,14115.975990,4094.772529,677.816651,8879.409299,15608.804298,-24610.142363,-8538.791065,-0.005500,-0.013250,1.004750,192.000000,127.500000,96.000000,127.500000,72.000000,15.500000,48.000000,0.000000,0.000000,0.000000,1770371749.977355,0.000000
162.000000,11709.184850,10406.972218,-25300.766564,-4263.595255,-15493.983387,16884.261892,-12421.110263,-19744.368761,11697.383129,14102.922571,4078.992197,661.455174,8871.519133,15593.247484,-24607.482506,-8531.794969,-0.005500,-0.013250,1.004750,192.000000,0.000000,0.000000,0.000000,0.000000,0.000000,0.000000,0.000000,0.000000,0.000000,1770371749.977366,0.000000
164.000000,11705.832089,10407.866288,-25295.580959,-4263.416441,-15481.891093,16898.969340,-12415.656437,-19742.781787,11682.832144,14090.651463,4064.821191,644.400793,8856.655223,15591.861676,-24606.968416,-8518.741550,-0.005500,-0.013250,1.004750,192.000000,0.000000,0.000000,0.000000,0.000000,0.000000,0.000000,0.000000,0.000000,0.000000,1770371749.977378,0.000000
166.000000,11697.830164,10400.937247,-25302.308834,-4270.792517,-15491.703509,16882.630215,-12417.757501,-19746.358066,11691.728138,14097.848725,4065.134116,652.313310,8870.490953,15605.518592,-24584.750782,-8505.308152,-0.005500,-0.013250,1.004750,192.000000,0.000000,0.000000,0.000000,0.000000,0.000000,0.000000,0.000000,0.000000,0.000000,1770371749.977390,0.000000
168.000000,11703.485156,10405.519355,-25306.354500,-4276.223990,-15498.386681,16867.900415,-12418.964496,-19744.592279,11669.555207,14077.195713,4054.964072,633.783714,8843.490045,15570.247539,-24617.496087,-8539.215748,-0.005500,-0.013250,1.004750,192.000000,0.000000,0.000000,0.000000,0.000000,0.000000,0.000000,0.000000,0.000000,0.000000,1770371749.977401,0.000000
170.000000,11740.320830,10441.036277,-25275.464389,-4266.411575,-15489.893018,16881.020889,-12393.215286,-19707.018996,11705.161536,14103.414309,4079.774508,661.142249,8872.167334,15606.569124,-24609.449459,-8541.585033,-0.006750,-0.015625,1.003375,192.000000,127.500000,96.000000,127.500000,56.000000,15.500000,40.000000,0.000000,0.000000,0.000000,1770371749.977413,0.000000
172.000000,11746.556967,10446.221882,-25279.197130,-4260.041327,-15487.993120,16871.342584,-12401.776004,-19707.242514,11722.998228,14124.201432,4099.868727,678.062520,8888.171183,15608.334912,-24617.965474,-8560.472257,-0.006750,-0.015625,1.003375,192.000000,0.000000,0.000000,0.000000,0.000000,0.000000,0.000000,0.000000,0.000000,0.000000,1770371749.977425,0.000000
174.000000,11762.180836,10466.427859,-25259.125264,-4246.898502,-15485.892056,16875.924692,-12381.078289,-19685.449563,11724.316981,14135.131435,4109.636439,687.494956,8886.181877,15604.669226,-24626.325026,-8577.437231,-0.006750,-0.015625,1.003375,192.000000,0.000000,0.000000,0.000000,0.000000,0.000000,0.000000,0.000000,0.000000,0.000000,1770371749.977437,0.000000
176.000000,11753.664822,10458.247120,-25261.114569,-4245.132714,-15488.462506,16873.913035,-12383.157001,-19690.411650,11735.112874,14149.414200,4118.308916,705.264593,8897.782433,15635.089950,-24611.461116,-8569.524714,-0.006750,-0.015625,1.003375,192.000000,0.000000,0.000000,0.000000,0.000000,0.000000,0.000000,0.000000,0.000000,0.000000,1770371749.977449,0.000000
178.000000,11748.702735,10449.060553,-25269.608232,-4247.524351,-15481.309948,16874.762401,-12394.981074,-19702.995682,11715.286877,14124.067321,4105.881346,682.242296,8873.150810,15608.781947,-24628.269628,-8576.274941,-0.006750,-0.015625,1.003375,192.000000,0.000000,0.000000,0.000000,0.000000,0.000000,0.000000,0.000000,0.000000,0.000000,1770371750.457500,0.000000
180.000000,11760.012717,10459.454114,-25253.291458,-4245.020955,-15466.200169,16888.888703,-12386.152135,-19693.429135,11733.682362,14131.286935,4109.368218,690.937125,8894.340264,15620.091929,-24607.013119,-8549.206978,-0.005375,-0.014812,1.003688,192.000000,127.500000,112.000000,127.500000,72.000000,15.500000,48.000000,0.000000,0.000000,0.000000,1770371750.457578,0.000000
182.000000,11734.151749,10435.269527,-25277.453694,-4253.380508,-15468.882378,16889.089869,-12410.448481,-19720.139470,11723.087635,14127.129510,4100.651038,681.862316,8885.667787,15612.514688,-24602.162791,-8539.059286,-0.005375,-0.014812,1.003688,192.000000,0.000000,0.000000,0.000000,0.000000,0.000000,0.000000,0.000000,0.000000,0.000000,1770371750.457649,0.000000
184.000000,11733.525900,10437.035315,-25269.988211,-4251.659423,-15468.837675,16895.415413,-12399.719644,-19714.596237,11702.300513,14118.099406,4088.134061,669.479450,8872.815534,15605.764461,-24605.582607,-8532.621984,-0.005375,-0.014812,1.003688,192.000000,0.000000,0.000000,0.000000,0.000000,0.000000,0.000000,0.000000,0.000000,0.000000,1770371750.457702,0.000000
186.000000,11714.437510,10416.181137,-25290.909444,-4259.817810,-15482.762812,16882.607863,-12410.359074,-19731.762377,11708.156670,14117.495908,4085.898886,676.632008,8876.570627,15617.432072,-24590.025793,-8516.886356,-0.005375,-0.014812,1.003688,192.000000,0.000000,0.000000,0.000000,0.000000,0.000000,0.000000,0.000000,0.000000,0.000000,1770371750.457752,0.000000
188.000000,11691.392862,10389.627265,-25315.228142,-4268.713804,-15501.381815,16869.107410,-12425.155929,-19757.600994,11669.219931,14079.296777,4055.455810,637.941138,8847.938043,15585.469077,-24620.066538,-8536.332373,-0.005375,-0.014812,1.003688,192.000000,0.000000,0.000000,0.000000,0.000000,0.000000,0.000000,0.000000,0.000000,0.000000,1770371750.457796,0.000000
190.000000,11697.293722,10395.818698,-25305.192209,-4269.406708,-15503.080547,16873.242482,-12411.007275,-19747.967392,11674.651405,14077.642748,4049.063212,638.790505,8837.946813,15590.654682,-24614.411547,-8524.687114,-0.003687,-0.014406,1.003844,192.000000,127.500000,120.000000,127.500000,72.000000,15.500000,48.000000,0.000000,0.000000,0.000000,1770371750.457813,0.000000
192.000000,11691.638731,10388.979064,-25314.714052,-4273.988816,-15489.669501,16879.657433,-12427.748731,-19756.639869,11674.807867,14073.708841,4048.124438,633.470790,8837.231557,15585.312615,-24612.981035,-8521.848443,-0.003687,-0.014406,1.003844,192.000000,0.000000,0.000000,0.000000,0.000000,0.000000,0.000000,0.000000,0.000000,0.000000,1770371750.457825,0.000000
194.000000,11716.538574,10417.477538,-25282.929871,-4260.130734,-15459.695811,16901.428032,-12410.828461,-19731.628267,11682.318054,14084.460030,4060.484953,642.791467,8864.545389,15594.812106,-24606.007291,-8519.121530,-0.003687,-0.014406,1.003844,192.000000,0.000000,0.000000,0.000000,0.000000,0.000000,0.000000,0.000000,0.000000,0.000000,1770371750.457837,0.000000
196.000000,11721.232441,10424.406579,-25277.967784,-4264.154048,-15448.184663,16903.618503,-12412.124862,-19728.879002,11716.002132,14112.690283,4079.126308,667.870124,8890.205191,15618.907287,-24579.788694,-8506.872774,-0.003687,-0.014406,1.003844,192.000000,0.000000,0.000000,0.000000,0.000000,0.000000,0.000000,0.000000,0.000000,0.000000,1770371750.457850,0.000000
198.000000,11727.692095,10429.189852,-25279.577110,-4253.156990,-15442.127340,16916.135480,-12413.622429,-19725.705054,11696.824336,14107.884658,4075.013587,659.488220,8881.420956,15612.000598,-24600.598168,-8522.608402,-0.003687,-0.014406,1.003844,192.000000,0.000000,0.000000,0.000000,0.000000,0.000000,0.000000,0.000000,0.000000,0.000000,1770371750.457862,0.000000
200.000000,11749.149769,10451.474542,-25255.303115,-4242.472856,-15426.101139,16925.567916,-12390.890704,-19701.609874,11721.411255,14131.666914,4091.732692,683.114014,8899.682331,15626.953915,-24583.610843,-8508.817376,-0.003687,-0.014406,1.003844,192.000000,0.000000,0.000000,0.000000,0.000000,0.000000,0.000000,0.000000,0.000000,0.000000,1770371750.457875,0.000000
202.000000,11735.224633,10431.939117,-25278.817150,-4247.837275,-15435.667686,16918.504765,-12406.961609,-19718.217220,11724.786368,14124.648467,4095.398378,679.805956,8903.415072,15628.652648,-24586.851846,-8513.623001,-0.002000,-0.014000,0.998000,192.000000,127.500000,120.000000,127.500000,72.000000,15.500000,24.000000,0.000000,0.000000,0.000000,1770371750.457887,0.000000
204.000000,11749.954432,10446.534806,-25268.915328,-4248.373717,-15432.091407,16920.650532,-12394.511687,-19703.420365,11711.643542,14118.971124,4094.280791,674.173316,8889.869915,15628.473834,-24598.608863,-8524.128321,-0.002000,-0.014000,0.998000,192.000000,0.000000,0.000000,0.000000,0.000000,0.000000,0.000000,0.000000,0.000000,0.000000,1770371750.457900,0.000000
206.000000,11747.518092,10443.517321,-25266.724857,-4249.938339,-15445.770674,16908.468832,-12397.730338,-19703.152144,11732.654182,14130.437568,4108.295334,693.440520,8900.263476,15642.220156,-24580.705116,-8512.125434,-0.002000,-0.014000,0.998000,192.000000,0.000000,0.000000,0.000000,0.000000,0.000000,0.000000,0.000000,0.000000,0.000000,1770371750.457912,0.000000
208.000000,11732.877699,10433.548443,-25273.989174,-4250.318319,-15453.437323,16904.065538,-12407.140423,-19714.149203,11701.741719,14115.372493,4096.448910,676.006159,8882.583247,15619.220211,-24599.145305,-8523.346010,-0.002000,-0.014000,0.998000,192.000000,0.000000,0.000000,0.000000,0.000000,0.000000,0.000000,0.000000,0.000000,0.000000,1770371750.457925,0.000000
210.000000,11734.263508,10436.677687,-25267.417761,-4246.585577,-15459.092314,16906.077195,-12396.121013,-19708.449508,11707.799042,14119.999304,4094.660770,682.868145,8886.226581,15617.834403,-24582.984994,-8508.482100,-0.002000,-0.014000,0.998000,192.000000,0.000000,0.000000,0.000000,0.000000,0.000000,0.000000,0.000000,0.000000,0.000000,1770371750.457938,0.000000
212.000000,11708.581353,10406.212259,-25299.894845,-4259.035499,-15471.341070,16889.134573,-12423.010161,-19741.463034,11694.700920,14107.974065,4079.998026,670.664092,8873.664901,15608.781947,-24587.142418,-8512.751283,-0.002000,-0.012000,1.002000,192.000000,127.500000,120.000000,127.500000,80.000000,15.500000,40.000000,0.000000,0.000000,0.000000,1770371750.457950,0.000000
214.000000,11711.732949,10411.263753,-25298.486686,-4263.327034,-15477.845428,16883.658395,-12413.980057,-19738.892584,11681.982777,14087.991606,4064.508267,649.385232,8866.132363,15590.073537,-24602.386308,-8525.670591,-0.002000,-0.012000,1.002000,192.000000,0.000000,0.000000,0.000000,0.000000,0.000000,0.000000,0.000000,0.000000,0.000000,1770371750.457963,0.000000
216.000000,11704.200411,10405.027617,-25308.164991,-4269.071432,-15492.128192,16874.181256,-12413.689484,-19742.625325,11688.621245,14095.367681,4063.144811,656.604845,8860.969110,15606.613828,-24600.933445,-8525.625888,-0.002000,-0.012000,1.002000,192.000000,0.000000,0.000000,0.000000,0.000000,0.000000,0.000000,0.000000,0.000000,0.000000,1770371750.457976,0.000000
218.000000,11707.150842,10407.016922,-25305.952168,-4268.400880,-15489.937721,16883.859561,-12414.672961,-19740.077226,11669.778725,14080.727289,4053.690023,638.991670,8841.277223,15582.183371,-24631.220058,-8549.452847,-0.002000,-0.012000,1.002000,192.000000,0.000000,0.000000,0.000000,0.000000,0.000000,0.000000,0.000000,0.000000,0.000000,1770371750.457990,0.000000
220.000000,11727.893260,10426.619402,-25272.625717,-4263.729365,-15467.608329,16905.049015,-12396.456289,-19716.160860,11697.383129,14101.760280,4074.410090,664.495011,8874.469563,15616.895630,-24608.041299,-8536.131207,-0.002000,-0.012000,1.002000,192.000000,0.000000,0.000000,0.000000,0.000000,0.000000,0.000000,0.000000,0.000000,0.000000,1770371750.458002,0.000000
222.000000,11726.082769,10420.718541,-25280.314717,-4264.042290,-15452.252680,16905.831326,-12416.103472,-19729.102520,11706.882621,14106.610609,4078.701625,664.159735,8882.851467,15620.427206,-24598.362994,-8538.165216,-0.008000,-0.012000,1.002000,192.000000,127.500000,96.000000,127.500000,80.000000,15.500000,40.000000,0.000000,0.000000,0.000000,1770371750.458015,0.000000
