Sample_index,EXG Channel 0,EXG Channel 1,EXG Channel 2,EXG Channel 3,EXG Channel 4,EXG Channel 5,EXG Channel 6,EXG Channel 7,EXG Channel 8,EXG Channel 9,EXG Channel 10,EXG Channel 11,EXG Channel 12,EXG Channel 13,EXG Channel 14,EXG Channel 15,Accel Channel 0,Accel Channel 1,Accel Channel 2,Not Used,Digital Channel 0 (D11),Digital Channel 1 (D12),Digital Channel 2 (D13),Digital Channel 3 (D17),Not Used,Digital Channel 4 (D18),Analog Channel 0,Analog Channel 1,Analog Channel 2,Timestamp,Marker Channel
90.000000,19019.524040,-4468.516048,-1727.320460,-1899.697113,-2658.762355,-14669.986328,-1188.017570,1352.213484,-1058.936245,-11184.276484,-3721.654859,-3787.011360,949.189180,14435.695343,-517.442884,-5042.374735,-0.002500,-0.009125,1.005875,192.000000,0.000000,0.000000,0.000000,0.000000,0.000000,0.000000,0.000000,0.000000,0.000000,1770025103.056240,0.000000
92.000000,19036.533718,-4445.113772,-1705.996896,-1876.250133,-2626.799360,-14640.370266,-1166.582247,1372.084185,-1059.562094,-11191.138469,-3726.259318,-3796.488499,951.603168,14429.772130,-514.872434,-5039.446657,-0.002500,-0.009125,1.005875,192.000000,0.000000,0.000000,127.500000,72.000000,15.500000,48.000000,0.000000,0.000000,0.000000,1770025103.056307,0.000000
94.000000,19031.973962,-4452.959234,-1714.624669,-1887.940095,-2628.878072,-14637.330429,-1181.960247,1359.075470,-1036.338632,-11170.172533,-3692.843460,-3774.337920,969.238695,14453.017944,-489.413797,-5011.663438,-0.002500,-0.009125,1.005875,192.000000,0.000000,0.000000,0.000000,0.000000,0.000000,0.000000,0.000000,0.000000,0.000000,1770025103.056360,0.000000
96.000000,19026.363674,-4457.183714,-1724.973527,-1894.153880,-2634.957747,-14630.669609,-1192.823195,1350.313586,-1064.971216,-11193.507754,-3744.341879,-3804.021037,940.717869,14428.922764,-508.457483,-5017.944278,-0.002500,-0.009125,1.005875,192.000000,0.000000,0.000000,0.000000,0.000000,0.000000,0.000000,0.000000,0.000000,0.000000,1770025103.056413,0.000000
98.000000,19044.669753,-4432.753257,-1712.322439,-1874.014959,-2617.836311,-14615.269257,-1176.059386,1367.859705,-1042.708879,-11165.702184,-3704.980457,-3776.886019,965.260084,14457.309479,-489.726721,-4986.137746,-0.002500,-0.009125,1.005875,192.000000,0.000000,0.000000,0.000000,0.000000,0.000000,0.000000,0.000000,0.000000,0.000000,1770025103.056476,0.000000
100.000000,19032.264535,-4455.708498,-1729.577986,-1896.344351,-2648.011166,-14649.288613,-1197.382950,1348.704260,-1047.469800,-11174.888751,-3726.236966,-3787.413691,958.442802,14444.457226,-503.048361,-5010.031761,-0.002500,-0.009125,1.005875,192.000000,0.000000,0.000000,0.000000,0.000000,0.000000,0.000000,0.000000,0.000000,0.000000,1770025103.056521,0.000000
102.000000,19057.656116,-4428.640536,-1706.578041,-1872.740909,-2633.750753,-14639.587955,-1168.303331,1376.643941,-1050.666100,-11179.135582,-3725.119379,-3788.307761,957.124049,14438.042276,-514.783027,-5032.629375,-0.002500,-0.009125,1.005875,192.000000,0.000000,0.000000,0.000000,0.000000,0.000000,0.000000,0.000000,0.000000,0.000000,1770025103.056540,0.000000
104.000000,19039.998238,-4445.694917,-1716.971602,-1889.281200,-2655.342538,-14664.666613,-1177.668712,1364.194019,-1028.917853,-11161.164780,-3688.328408,-3765.576037,978.022930,14455.856616,-499.226212,-5027.220252,-0.002000,-0.016000,1.004000,192.000000,127.500000,120.000000,127.500000,64.000000,15.500000,48.000000,0.000000,0.000000,0.000000,1770025103.056558,0.000000
106.000000,19032.264535,-4446.521931,-1720.123198,-1896.098482,-2665.624340,-14676.378927,-1183.614276,1362.651749,-1068.212219,-11190.110289,-3742.911368,-3801.651752,939.555578,14419.780900,-532.910291,-5065.307625,-0.002000,-0.016000,1.004000,192.000000,0.000000,0.000000,0.000000,0.000000,0.000000,0.000000,0.000000,0.000000,0.000000,1770025103.056575,0.000000
108.000000,19059.131331,-4427.500597,-1700.364256,-1877.345369,-2637.125866,-14657.804627,-1165.866991,1382.924781,-1038.573806,-11169.479629,-3692.284667,-3769.867572,964.366015,14446.267718,-506.356419,-5043.402915,-0.002000,-0.016000,1.004000,192.000000,0.000000,0.000000,0.000000,0.000000,0.000000,0.000000,0.000000,0.000000,0.000000,1770025103.056593,0.000000
110.000000,19047.419017,-4439.279966,-1717.530396,-1895.964372,-2653.800267,-14667.907616,-1190.945648,1364.797516,-1039.199655,-11171.759507,-3710.970725,-3778.495345,963.673110,14439.539843,-512.994887,-5053.796477,-0.002000,-0.016000,1.004000,192.000000,0.000000,0.000000,0.000000,0.000000,0.000000,0.000000,0.000000,0.000000,0.000000,1770025103.056610,0.000000
112.000000,19073.727020,-4413.016667,-1696.765625,-1869.790479,-2623.983040,-14640.370266,-1169.264456,1389.317380,-1034.170512,-11167.691489,-3709.741379,-3776.796612,967.137631,14444.948965,-512.078465,-5049.907273,-0.002000,-0.016000,1.004000,192.000000,0.000000,0.000000,0.000000,0.000000,0.000000,0.000000,0.000000,0.000000,0.000000,1770025103.056627,0.000000
114.000000,19060.673602,-4421.689143,-1707.427407,-1878.015921,-2633.571939,-14645.444112,-1181.535564,1377.538011,-1009.270669,-11145.540910,-3672.212800,-3753.304929,994.831442,14472.910997,-492.453634,-5025.342706,-0.002000,-0.016000,1.004000,192.000000,0.000000,0.000000,127.500000,80.000000,15.500000,64.000000,0.000000,0.000000,0.000000,1770025103.056644,0.000000
116.000000,19048.089570,-4442.789190,-1717.664506,-1887.247191,-2639.808075,-14645.466464,-1186.855279,1363.858743,-1050.621396,-11175.089917,-3729.299155,-3787.100767,952.787811,14443.250232,-516.973498,-5046.912139,-0.002000,-0.016000,1.004000,192.000000,0.000000,0.000000,0.000000,0.000000,0.000000,0.000000,0.000000,0.000000,0.000000,1770025103.056661,0.000000
118.000000,19056.225605,-4423.387876,-1702.621782,-1870.438680,-2616.919889,-14617.772653,-1170.694968,1375.392243,-1029.119018,-11161.969443,-3689.021312,-3770.024034,981.398044,14464.618500,-491.827785,-5010.679962,-0.002000,-0.016000,1.004000,192.000000,0.000000,0.000000,0.000000,0.000000,0.000000,0.000000,0.000000,0.000000,0.000000,1770025103.056678,0.000000
120.000000,19032.868032,-4448.801809,-1724.034753,-1894.846784,-2636.276500,-14632.189528,-1198.947573,1349.464220,-1045.212274,-11175.425193,-3718.793835,-3788.218354,957.168753,14451.229805,-500.790835,-5011.283459,-0.002000,-0.016000,1.004000,192.000000,0.000000,0.000000,0.000000,0.000000,0.000000,0.000000,0.000000,0.000000,0.000000,1770025103.056697,0.000000
122.000000,19062.931128,-4420.124521,-1703.895832,-1872.249171,-2603.151214,-14607.289685,-1176.819346,1375.705168,-1045.949882,-11172.206542,-3723.130074,-3787.436043,959.493334,14455.677802,-496.029913,-5006.813110,-0.002000,-0.016000,1.004000,192.000000,0.000000,0.000000,0.000000,0.000000,0.000000,0.000000,0.000000,0.000000,0.000000,1770025103.056715,0.000000
124.000000,19048.514253,-4433.289699,-1715.541090,-1886.844860,-2618.484511,-14630.624906,-1187.324665,1364.573999,-1024.894539,-11152.939338,-3686.875544,-3763.832601,983.432053,14471.413430,-478.260276,-4997.604191,-0.002000,-0.016000,1.004000,192.000000,0.000000,0.000000,127.500000,56.000000,15.500000,56.000000,0.000000,0.000000,0.000000,1770025103.056732,0.000000
126.000000,19048.178977,-4439.101152,-1719.005611,-1889.616476,-2636.120038,-14644.147711,-1185.022436,1362.696452,-1055.382318,-11181.057832,-3736.518769,-3793.336903,951.357299,14435.941212,-509.217442,-5035.110418,-0.002000,-0.016000,1.004000,192.000000,0.000000,0.000000,0.000000,0.000000,0.000000,0.000000,0.000000,0.000000,0.000000,1770025103.056749,0.000000
128.000000,19058.281965,-4426.628879,-1705.594564,-1872.182116,-2632.901386,-14641.711371,-1162.603636,1375.906333,-1031.085972,-11164.294024,-3693.178736,-3772.348615,970.982131,14456.013078,-496.901631,-5023.398104,-0.002000,-0.016000,1.004000,192.000000,0.000000,0.000000,0.000000,0.000000,0.000000,0.000000,0.000000,0.000000,0.000000,1770025103.056766,0.000000
130.000000,19043.105131,-4444.934958,-1724.705306,-1896.746683,-2667.211314,-14672.936758,-1183.904849,1359.656615,-1046.195751,-11176.542780,-3718.056228,-3783.770357,961.437936,14438.131683,-517.509939,-5048.923796,-0.002000,-0.016000,1.004000,192.000000,0.000000,0.000000,0.000000,0.000000,0.000000,0.000000,0.000000,0.000000,0.000000,1770025103.056783,0.000000
132.000000,19050.682372,-4428.640536,-1706.600393,-1877.859459,-2644.457238,-14654.295403,-1164.257665,1379.214392,-1055.315263,-11183.382414,-3722.683039,-3789.917086,943.981224,14429.459206,-525.690678,-5058.132715,-0.002000,-0.016000,1.004000,192.000000,0.000000,0.000000,0.000000,0.000000,0.000000,0.000000,0.000000,0.000000,0.000000,1770025103.056800,0.000000
134.000000,19044.759160,-4441.828065,-1713.708247,-1890.912877,-2648.547607,-14662.878473,-1180.373273,1362.987025,-1033.790533,-11167.870303,-3690.809451,-3770.962807,968.970474,14449.262851,-500.768483,-5035.356287,0.002000,-0.012000,1.010000,192.000000,0.000000,8.000000,127.500000,80.000000,15.500000,72.000000,0.000000,0.000000,0.000000,1770025103.056817,0.000000
136.000000,19037.539546,-4449.472362,-1719.609108,-1896.523165,-2650.827485,-14666.007717,-1186.408244,1355.990929,-1060.478516,-11196.257019,-3742.754906,-3807.507909,945.948177,14416.003456,-521.801474,-5060.010262,0.002000,-0.012000,1.010000,192.000000,0.000000,0.000000,0.000000,0.000000,0.000000,0.000000,0.000000,0.000000,0.000000,1770025103.056834,0.000000
138.000000,19057.522006,-4427.612356,-1706.868614,-1875.512526,-2630.420343,-14639.811473,-1171.834907,1374.587581,-1038.462047,-11174.240550,-3699.481928,-3780.261133,969.350454,14446.379476,-503.316582,-5031.645898,0.002000,-0.012000,1.010000,192.000000,0.000000,0.000000,0.000000,0.000000,0.000000,0.000000,0.000000,0.000000,0.000000,1770025103.056851,0.000000
140.000000,19046.547299,-4437.737696,-1725.755838,-1891.985761,-2650.760430,-14648.752171,-1195.527756,1355.521542,-1044.586425,-11173.815867,-3719.844367,-3785.983179,959.135706,14445.038372,-511.296154,-5034.752790,0.002000,-0.012000,1.010000,192.000000,0.000000,0.000000,0.000000,0.000000,0.000000,0.000000,0.000000,0.000000,0.000000,1770025103.056868,0.000000
142.000000,19064.227529,-4422.806731,-1702.755893,-1871.824488,-2622.776046,-14624.008790,-1172.505459,1375.302836,-1045.145219,-11175.156972,-3725.454655,-3789.134775,959.828610,14444.345468,-510.804416,-5029.902462,0.002000,-0.012000,1.010000,192.000000,0.000000,0.000000,0.000000,0.000000,0.000000,0.000000,0.000000,0.000000,0.000000,1770025103.056885,0.000000
144.000000,19051.911718,-4437.067144,-1709.617878,-1887.046026,-2628.743962,-14632.569508,-1183.122538,1363.814040,-1020.558300,-11164.897521,-3687.948428,-3773.019168,987.388311,14460.796352,-485.166965,-5006.164909,0.002000,-0.016000,1.016000,192.000000,0.000000,8.000000,127.500000,64.000000,15.500000,96.000000,0.000000,0.000000,0.000000,1770025103.056902,0.000000
146.000000,19043.015724,-4445.627862,-1717.955079,-1895.919668,-2638.399916,-14646.874624,-1186.609410,1358.561380,-1054.979987,-11197.084033,-3739.692717,-3806.122101,953.257198,14422.485462,-514.559509,-5038.105552,0.002000,-0.016000,1.016000,192.000000,0.000000,0.000000,0.000000,0.000000,0.000000,0.000000,0.000000,0.000000,0.000000,1770025103.056919,0.000000
148.000000,19062.618203,-4420.593908,-1703.292334,-1875.087842,-2620.473816,-14631.541327,-1165.866991,1378.074453,-1031.108323,-11176.095745,-3696.375036,-3780.462298,977.531192,14443.518453,-497.371018,-5021.229985,0.002000,-0.016000,1.016000,192.000000,0.000000,0.000000,0.000000,0.000000,0.000000,0.000000,0.000000,0.000000,0.000000,1770025103.056936,0.000000
150.000000,19039.595907,-4445.851379,-1727.141646,-1902.714599,-2653.554398,-14662.766714,-1195.639514,1349.710089,-1045.368736,-11182.980082,-3722.526577,-3792.643999,964.656587,14433.616630,-508.748056,-5036.518578,0.002000,-0.016000,1.016000,192.000000,0.000000,0.000000,0.000000,0.000000,0.000000,0.000000,0.000000,0.000000,0.000000,1770025103.056953,0.000000
152.000000,19059.466608,-4428.260556,-1705.326343,-1879.513488,-2630.889729,-14643.432455,-1170.493802,1371.570095,-1052.208370,-11191.138469,-3729.388562,-3801.763511,950.977320,14420.876136,-515.475931,-5047.001546,0.002000,-0.016000,1.016000,192.000000,0.000000,0.000000,0.000000,0.000000,0.000000,0.000000,0.000000,0.000000,0.000000,1770025103.056970,0.000000
154.000000,19054.102189,-4436.933033,-1715.742256,-1889.504718,-2642.177360,-14654.585976,-1182.206116,1361.891790,-1030.638937,-11177.012167,-3694.251620,-3781.378720,975.608942,14444.747799,-493.034779,-5024.828616,0.002000,-0.010000,1.012000,192.000000,0.000000,8.000000,127.500000,88.000000,15.500000,80.000000,0.000000,0.000000,0.000000,1770025103.056987,0.000000
156.000000,19048.447197,-4450.299376,-1721.330192,-1896.970200,-2653.263826,-14663.101991,-1185.827099,1359.388394,-1056.946940,-11201.062644,-3740.206807,-3809.698380,950.306767,14415.399959,-522.069695,-5056.568093,0.002000,-0.010000,1.012000,192.000000,0.000000,0.000000,0.000000,0.000000,0.000000,0.000000,0.000000,0.000000,0.000000,1770025103.057005,0.000000
158.000000,19061.746485,-4420.348039,-1704.186404,-1877.635941,-2631.649689,-14643.879490,-1163.832982,1377.940342,-1031.778876,-11180.297873,-3694.341027,-3783.077453,970.400986,14441.037409,-503.808320,-5035.959785,0.002000,-0.010000,1.012000,192.000000,0.000000,0.000000,0.000000,0.000000,0.000000,0.000000,0.000000,0.000000,0.000000,1770025103.057020,0.000000
160.000000,19040.489976,-4448.712402,-1723.543015,-1905.329753,-2656.840105,-14671.841523,-1188.844584,1350.224179,-1041.144257,-11188.925646,-3717.095103,-3795.952057,960.096831,14427.112273,-515.542986,-5050.846046,0.002000,-0.010000,1.012000,192.000000,0.000000,0.000000,0.000000,0.000000,0.000000,0.000000,0.000000,0.000000,0.000000,1770025103.057036,0.000000
162.000000,19049.721247,-4437.760048,-1714.043524,-1884.386168,-2640.031593,-14647.612232,-1171.991369,1365.110441,-1056.678719,-11201.219106,-3730.372039,-3806.166805,946.082288,14412.807156,-520.415666,-5053.192979,0.002000,-0.010000,1.012000,192.000000,0.000000,0.000000,0.000000,0.000000,0.000000,0.000000,0.000000,0.000000,0.000000,1770025103.057052,0.000000
164.000000,19040.467625,-4444.443219,-1727.812198,-1890.443491,-2649.598139,-14649.892110,-1186.274133,1351.878208,-1042.217140,-11183.203600,-3703.482891,-3785.938476,963.918980,14437.572889,-498.041570,-5019.933584,0.002000,-0.010000,1.012000,192.000000,0.000000,8.000000,127.500000,88.000000,15.500000,80.000000,0.000000,0.000000,0.000000,1770025103.057070,0.000000
166.000000,19039.685314,-4443.906777,-1731.388477,-1890.823470,-2655.878980,-14652.820188,-1189.090453,1352.705223,-1072.146126,-11204.683626,-3754.869551,-3813.654639,928.133837,14414.058854,-519.968631,-5038.329069,0.002000,-0.010000,1.012000,192.000000,0.000000,0.000000,0.000000,0.000000,0.000000,0.000000,0.000000,0.000000,0.000000,1770025103.057087,0.000000
168.000000,19069.279023,-4422.404399,-1711.517776,-1874.260828,-2633.616642,-14632.144825,-1169.353863,1373.268828,-1042.485361,-11180.320225,-3703.549946,-3781.937514,956.051166,14442.199700,-497.326314,-5017.184319,0.002000,-0.010000,1.012000,192.000000,0.000000,0.000000,0.000000,0.000000,0.000000,0.000000,0.000000,0.000000,0.000000,1770025103.057104,0.000000
170.000000,19039.931183,-4447.281891,-1729.913262,-1901.753473,-2655.297834,-14652.954299,-1194.298410,1347.050231,-1048.766202,-11188.836239,-3725.655821,-3795.661485,949.636215,14434.018962,-509.530367,-5030.170683,0.002000,-0.010000,1.012000,192.000000,0.000000,0.000000,0.000000,0.000000,0.000000,0.000000,0.000000,0.000000,0.000000,1770025103.057122,0.000000
172.000000,19062.282927,-4431.009821,-1706.689800,-1875.713691,-2625.637069,-14631.898955,-1167.677482,1372.374758,-1052.767164,-11191.987835,-3727.645126,-3799.438929,946.775192,14425.793520,-513.754846,-5036.742096,0.002000,-0.010000,1.012000,192.000000,0.000000,0.000000,0.000000,0.000000,0.000000,0.000000,0.000000,0.000000,0.000000,1770025103.057138,0.000000
174.000000,19046.636706,-4442.431562,-1720.346715,-1886.397825,-2642.646747,-14647.723990,-1180.373273,1359.544856,-1033.030573,-11177.056870,-3694.251620,-3777.981255,977.128861,14444.859558,-498.712122,-5020.022991,0.005000,-0.011000,1.004000,192.000000,0.000000,32.000000,127.500000,80.000000,15.500000,16.000000,0.000000,0.000000,0.000000,1770025103.057155,0.000000
176.000000,19046.100264,-4440.151684,-1722.894814,-1893.505680,-2651.453334,-14655.301232,-1185.983561,1355.678005,-1067.407556,-11201.308513,-3746.130019,-3807.373799,933.319441,14413.231839,-527.679983,-5049.281424,0.005000,-0.011000,1.004000,192.000000,0.000000,0.000000,0.000000,0.000000,0.000000,0.000000,0.000000,0.000000,0.000000,1770025103.057172,0.000000
178.000000,19073.794076,-4410.803844,-1702.085340,-1871.422156,-2627.067581,-14631.116644,-1166.068156,1379.482613,-1033.969347,-11173.838219,-3694.408082,-3776.997778,963.002558,14444.278412,-499.919116,-5028.539005,0.005000,-0.011000,1.004000,192.000000,0.000000,0.000000,0.000000,0.000000,0.000000,0.000000,0.000000,0.000000,0.000000,1770025103.057189,0.000000
180.000000,19055.331535,-4433.826141,-1724.079457,-1894.198584,-2651.430983,-14653.893072,-1193.180823,1354.001624,-1040.205483,-11176.028690,-3716.245737,-3788.620685,959.314520,14438.623421,-508.256317,-5038.217311,0.005000,-0.011000,1.004000,192.000000,0.000000,0.000000,0.000000,0.000000,0.000000,0.000000,0.000000,0.000000,0.000000,1770025103.057205,0.000000
182.000000,19074.665794,-4418.917527,-1705.549861,-1870.349273,-2629.772142,-14636.883394,-1168.839773,1374.408767,-1045.324033,-11182.957731,-3724.448827,-3793.962752,954.106564,14430.174462,-513.956012,-5044.028764,0.005000,-0.011000,1.004000,192.000000,0.000000,0.000000,0.000000,0.000000,0.000000,0.000000,0.000000,0.000000,0.000000,1770025103.057223,0.000000
184.000000,19064.361640,-4417.978754,-1714.423503,-1879.289970,-2640.165703,-14646.137017,-1178.763947,1364.417537,-1022.324088,-11161.231835,-3687.993132,-3767.990025,977.441785,14453.532035,-491.380750,-5020.335915,0.003500,-0.012500,1.003000,192.000000,0.000000,8.000000,127.500000,72.000000,15.500000,40.000000,0.000000,0.000000,0.000000,1770025103.057241,0.000000
186.000000,19062.461741,-4432.373277,-1720.346715,-1887.314247,-2649.531084,-14655.837674,-1183.122538,1360.550685,-1056.857533,-11188.098632,-3739.312737,-3798.880136,944.897645,14422.083130,-519.789817,-5047.850913,0.003500,-0.012500,1.003000,192.000000,0.000000,0.000000,0.000000,0.000000,0.000000,0.000000,0.000000,0.000000,0.000000,1770025103.057256,0.000000
188.000000,19068.943747,-4416.078856,-1703.627611,-1871.064528,-2635.494189,-14636.056380,-1163.296540,1380.466089,-1034.774010,-11174.017033,-3693.625771,-3777.869496,960.677977,14441.484444,-502.578974,-5022.392276,0.003500,-0.012500,1.003000,192.000000,0.000000,0.000000,0.000000,0.000000,0.000000,0.000000,0.000000,0.000000,0.000000,1770025103.057274,0.000000
190.000000,19051.710552,-4440.688126,-1724.750009,-1898.646581,-2653.241474,-14656.508226,-1193.516099,1353.264016,-1039.333765,-11181.795440,-3710.970725,-3789.581810,954.061860,14430.330924,-510.916175,-5030.796532,0.003500,-0.012500,1.003000,192.000000,0.000000,0.000000,0.000000,0.000000,0.000000,0.000000,0.000000,0.000000,0.000000,1770025103.057290,0.000000
192.000000,19069.323727,-4414.246012,-1707.203890,-1877.680645,-2626.017049,-14631.206051,-1173.041901,1371.212467,-1049.436754,-11187.182210,-3723.912385,-3798.634267,947.199875,14423.871270,-509.038628,-5035.982136,0.003500,-0.012500,1.003000,192.000000,0.000000,0.000000,0.000000,0.000000,0.000000,0.000000,0.000000,0.000000,0.000000,1770025103.057308,0.000000
194.000000,19065.166302,-4424.505463,-1711.875404,-1882.530973,-2627.246395,-14635.519938,-1181.334398,1365.915104,-1028.739039,-11169.479629,-3689.244829,-3778.629455,970.646855,14451.430971,-484.205840,-5014.233889,0.003500,-0.012500,1.003000,192.000000,0.000000,0.000000,127.500000,64.000000,15.500000,56.000000,0.000000,0.000000,0.000000,1770025103.057326,0.000000
196.000000,19066.172131,-4427.835873,-1715.876367,-1884.632037,-2639.673965,-14642.761903,-1186.005913,1367.815002,-1051.627225,-11185.081146,-3730.372039,-3798.120177,953.346605,14428.878060,-508.748056,-5039.848988,0.003500,-0.012500,1.003000,192.000000,0.000000,0.000000,0.000000,0.000000,0.000000,0.000000,0.000000,0.000000,0.000000,1770025103.057342,0.000000
198.000000,19087.316881,-4395.045864,-1695.290410,-1863.174363,-2623.379543,-14628.501490,-1162.268360,1395.687627,-1020.111265,-11162.014146,-3676.951370,-3765.866609,975.921866,14454.426104,-494.353532,-5017.139616,0.003500,-0.012500,1.003000,192.000000,0.000000,0.000000,0.000000,0.000000,0.000000,0.000000,0.000000,0.000000,0.000000,1770025103.057359,0.000000
200.000000,19066.887387,-4423.812559,-1718.268003,-1888.588296,-2652.235645,-14658.944566,-1186.385892,1373.447642,-1028.135541,-11164.651652,-3696.687960,-3770.851048,968.322273,14442.892604,-507.429303,-5029.321316,0.003500,-0.012500,1.003000,192.000000,0.000000,0.000000,0.000000,0.000000,0.000000,0.000000,0.000000,0.000000,0.000000,1770025103.057377,0.000000
202.000000,19076.856265,-4411.854376,-1702.934707,-1874.573752,-2632.320241,-14639.073865,-1166.962226,1386.322246,-1043.334728,-11181.326053,-3714.256431,-3784.843240,951.402003,14425.033560,-513.084294,-5039.737229,0.003500,-0.012500,1.003000,192.000000,0.000000,0.000000,0.000000,0.000000,0.000000,0.000000,0.000000,0.000000,0.000000,1770025103.057393,0.000000
204.000000,19062.864073,-4427.768818,-1714.848186,-1887.046026,-2642.177360,-14647.925156,-1184.195421,1367.323264,-1026.973251,-11170.619568,-3684.953294,-3773.868534,973.798451,14444.434875,-489.860831,-5021.565261,-0.000250,-0.015250,1.007500,192.000000,127.500000,112.000000,127.500000,56.000000,15.500000,80.000000,0.000000,0.000000,0.000000,1770025103.057410,0.000000
206.000000,19063.691087,-4425.868920,-1718.335058,-1886.844860,-2645.686584,-14647.902804,-1188.978695,1362.785859,-1056.075222,-11192.814850,-3736.965804,-3802.769339,945.322328,14419.087996,-512.279631,-5044.945186,-0.000250,-0.015250,1.007500,192.000000,0.000000,0.000000,0.000000,0.000000,0.000000,0.000000,0.000000,0.000000,0.000000,1770025103.057428,0.000000
208.000000,19079.650233,-4405.662943,-1702.890003,-1867.577656,-2624.094799,-14627.897993,-1169.309159,1381.784842,-1024.849835,-11165.679832,-3689.110719,-3773.041519,974.759576,14448.927575,-492.520689,-5018.637183,-0.000250,-0.015250,1.007500,192.000000,0.000000,0.000000,0.000000,0.000000,0.000000,0.000000,0.000000,0.000000,0.000000,1770025103.057444,0.000000
210.000000,19063.333459,-4426.405361,-1724.370029,-1892.701017,-2649.911064,-14645.779389,-1195.170128,1357.466144,-1037.545626,-11173.681757,-3712.848271,-3786.966656,967.361148,14437.103502,-502.847195,-5023.085180,-0.000250,-0.015250,1.007500,192.000000,0.000000,0.000000,0.000000,0.000000,0.000000,0.000000,0.000000,0.000000,0.000000,1770025103.537186,101.000000
212.000000,19081.371317,-4402.667809,-1703.292334,-1871.422156,-2621.054962,-14624.433473,-1173.421880,1381.449566,-1044.139390,-11178.219161,-3721.610155,-3789.224182,953.346605,14428.743950,-509.038628,-5025.812093,-0.000250,-0.015250,1.007500,192.000000,0.000000,0.000000,0.000000,0.000000,0.000000,0.000000,0.000000,0.000000,0.000000,1770025103.537247,0.000000
214.000000,19077.146837,-4406.802882,-1709.148492,-1874.216124,-2620.943203,-14631.384865,-1181.088529,1376.576886,-1011.751713,-11153.051097,-3676.571390,-3761.485667,980.168698,14457.465942,-483.579991,-5005.047322,-0.000250,-0.015250,1.007500,192.000000,0.000000,0.000000,127.500000,72.000000,15.500000,56.000000,0.000000,0.000000,0.000000,1770025103.537295,0.000000
216.000000,19076.386878,-4406.713475,-1714.803483,-1877.367720,-2630.822674,-14643.655973,-1186.184726,1372.330054,-1040.004318,-11170.798382,-3724.582937,-3782.071624,955.425317,14434.153072,-506.222308,-5032.629375,-0.000250,-0.015250,1.007500,192.000000,0.000000,0.000000,0.000000,0.000000,0.000000,0.000000,0.000000,0.000000,0.000000,1770025103.537348,0.000000
218.000000,19094.245922,-4391.380178,-1698.419654,-1862.637921,-2616.942241,-14633.083598,-1165.241142,1389.451491,-1015.797379,-11150.123018,-3680.348835,-3757.507057,978.179393,14455.275471,-491.268991,-5018.033685,-0.000250,-0.015250,1.007500,192.000000,0.000000,0.000000,0.000000,0.000000,0.000000,0.000000,0.000000,0.000000,0.000000,1770025103.537405,0.000000
220.000000,19071.268329,-4420.169225,-1717.686858,-1890.711712,-2648.480552,-14661.649127,-1190.744482,1364.261075,-1027.397934,-11164.718707,-3702.052379,-3774.740252,974.178430,14441.171520,-503.964782,-5034.886901,-0.000250,-0.015250,1.007500,192.000000,0.000000,0.000000,0.000000,0.000000,0.000000,0.000000,0.000000,0.000000,0.000000,1770025103.537449,0.000000
222.000000,19089.976739,-4404.455948,-1703.247631,-1870.595142,-2627.514616,-14639.118569,-1169.376215,1382.142470,-1035.645728,-11177.123925,-3711.216594,-3790.945267,958.129878,14427.604011,-512.480797,-5044.721668,-0.000250,-0.015250,1.007500,192.000000,0.000000,0.000000,0.000000,0.000000,0.000000,0.000000,0.000000,0.000000,0.000000,1770025103.537473,0.000000
224.000000,19078.622053,-4405.931164,-1708.030904,-1873.098537,-2630.934433,-14638.157444,-1178.093395,1371.637150,-1011.438788,-11158.124943,-3673.956236,-3769.085261,989.556431,14456.370706,-491.336047,-5015.865566,0.000875,-0.016625,1.006750,192.000000,0.000000,8.000000,127.500000,56.000000,15.500000,56.000000,0.000000,0.000000,0.000000,1770025103.537510,0.000000
226.000000,19071.715363,-4420.415094,-1713.305916,-1882.240401,-2637.796418,-14643.365400,-1186.944686,1364.439889,-1040.943091,-11181.706033,-3726.572243,-3797.091996,957.772250,14428.498081,-512.480797,-5038.485532,0.000875,-0.016625,1.006750,192.000000,0.000000,0.000000,0.000000,0.000000,0.000000,0.000000,0.000000,0.000000,0.000000,1770025103.537522,0.000000
228.000000,19090.982567,-4398.532736,-1694.888079,-1865.074261,-2618.037476,-14627.294496,-1165.934046,1382.969485,-1015.618565,-11158.884902,-3683.187507,-3771.253380,983.074425,14451.498026,-487.759768,-5018.570127,0.000875,-0.016625,1.006750,192.000000,0.000000,0.000000,0.000000,0.000000,0.000000,0.000000,0.000000,0.000000,0.000000,1770025103.537546,0.000000
230.000000,19072.318861,-4422.516158,-1719.117370,-1889.594125,-2649.307567,-14656.843502,-1191.817366,1361.087127,-1026.012126,-11169.256111,-3700.443053,-3780.864630,970.356282,14435.583584,-498.645067,-5032.450561,0.000875,-0.016625,1.006750,192.000000,0.000000,0.000000,0.000000,0.000000,0.000000,0.000000,0.000000,0.000000,0.000000,1770025103.537563,0.000000
232.000000,19089.395593,-4399.851489,-1701.817119,-1864.582522,-2628.319279,-14634.447054,-1167.453965,1386.478709,-1034.952824,-11178.800306,-3707.886184,-3786.653732,962.801392,14423.379531,-511.162044,-5038.686697,0.000875,-0.016625,1.006750,192.000000,0.000000,0.000000,0.000000,0.000000,0.000000,0.000000,0.000000,0.000000,0.000000,1770025103.537575,0.000000
234.000000,19073.369393,-4419.163396,-1714.982297,-1879.021749,-2638.534026,-14648.551005,-1181.133232,1368.686720,-1019.194844,-11162.572940,-3678.381882,-3770.404013,970.311579,14443.652564,-492.408930,-5015.820863,0.000875,-0.016625,1.006750,192.000000,0.000000,0.000000,127.500000,64.000000,15.500000,48.000000,0.000000,0.000000,0.000000,1770025103.537586,0.000000
236.000000,19067.289718,-4423.946670,-1719.095018,-1885.503755,-2637.215273,-14651.613194,-1189.068102,1363.344653,-1054.823524,-11191.138469,-3735.870568,-3799.885964,944.517665,14411.689569,-516.012372,-5044.654613,0.000875,-0.016625,1.006750,192.000000,0.000000,0.000000,0.000000,0.000000,0.000000,0.000000,0.000000,0.000000,0.000000,1770025103.537598,0.000000
238.000000,19083.986471,-4405.417073,-1700.408959,-1868.807002,-2609.588517,-14628.166214,-1172.348997,1379.415557,-1026.995602,-11166.708012,-3688.261353,-3773.645016,972.099718,14438.578718,-490.061997,-5019.084217,0.000875,-0.016625,1.006750,192.000000,0.000000,0.000000,0.000000,0.000000,0.000000,0.000000,0.000000,0.000000,0.000000,1770025103.537610,0.000000
240.000000,19072.408268,-4423.052600,-1717.373933,-1890.197622,-2629.861549,-14645.958203,-1193.605506,1361.936493,-1031.018916,-11172.921797,-3704.309905,-3781.289313,970.490393,14431.515566,-496.588707,-5027.846101,0.000875,-0.016625,1.006750,192.000000,0.000000,0.000000,0.000000,0.000000,0.000000,0.000000,0.000000,0.000000,0.000000,1770025103.537622,0.000000
242.000000,19081.773648,-4407.182861,-1704.655791,-1872.986778,-2617.791607,-14634.335295,-1173.421880,1376.152203,-1040.004318,-11180.297873,-3712.892975,-3789.872383,959.359224,14421.278467,-505.529404,-5039.044325,0.000875,-0.016625,1.006750,192.000000,0.000000,0.000000,0.000000,0.000000,0.000000,0.000000,0.000000,0.000000,0.000000,1770025103.537639,0.000000
244.000000,19071.849474,-4417.442312,-1714.602317,-1881.391034,-2635.136561,-14643.007772,-1184.307180,1366.295083,-1022.726419,-11167.490323,-3682.449899,-3772.326263,972.434994,14439.472787,-493.213593,-5021.721723,0.000875,-0.016625,1.006750,192.000000,0.000000,0.000000,0.000000,0.000000,0.000000,0.000000,0.000000,0.000000,0.000000,1770025103.537651,0.000000
246.000000,19065.523930,-4428.148798,-1721.464303,-1888.096558,-2647.608834,-14652.864892,-1193.091416,1362.160011,-1050.420231,-11188.813888,-3731.333164,-3797.874307,943.400078,14409.923781,-520.326259,-5048.230892,-0.004000,-0.018000,1.008000,192.000000,127.500000,112.000000,127.500000,56.000000,15.500000,64.000000,0.000000,0.000000,0.000000,1770025103.537663,0.000000
248.000000,19089.060317,-4396.744597,-1699.336076,-1865.722461,-2617.411627,-14633.552984,-1171.253761,1386.746929,-1023.352268,-11170.619568,-3682.986341,-3772.527429,972.859677,14434.041313,-497.840404,-5027.935508,-0.004000,-0.018000,1.008000,192.000000,0.000000,0.000000,0.000000,0.000000,0.000000,0.000000,0.000000,0.000000,0.000000,1770025103.537675,0.000000
250.000000,19077.839741,-4411.384989,-1717.820968,-1883.916781,-2634.443657,-14646.896976,-1194.968962,1365.401014,-1023.687544,-11160.069544,-3696.509146,-3771.365138,971.898552,14435.494177,-500.321448,-5031.020049,-0.004000,-0.018000,1.008000,192.000000,0.000000,0.000000,0.000000,0.000000,0.000000,0.000000,0.000000,0.000000,0.000000,1770025103.537689,0.000000
252.000000,19080.857227,-4412.346114,-1701.235974,-1869.052871,-2617.389276,-14634.759979,-1176.104090,1378.789708,-1038.931434,-11177.928588,-3710.233117,-3786.027883,965.573009,14423.200717,-504.612983,-5036.920910,-0.004000,-0.018000,1.008000,192.000000,0.000000,0.000000,0.000000,0.000000,0.000000,0.000000,0.000000,0.000000,0.000000,1770025103.537701,0.000000
254.000000,19073.950538,-4419.409265,-1709.215547,-1878.641770,-2629.414514,-14644.952374,-1185.715340,1369.692548,-1017.898442,-11168.138524,-3676.325521,-3770.404013,981.822727,14438.623421,-487.737416,-5018.726590,-0.004000,-0.018000,1.008000,192.000000,0.000000,0.000000,0.000000,0.000000,0.000000,0.000000,0.000000,0.000000,0.000000,1770025103.537713,0.000000
0.000000,19071.693012,-4425.935975,-1713.596489,-1885.727273,-2638.064639,-14654.697735,-1191.839718,1365.646883,-1040.496056,-11192.032539,-3722.839501,-3796.667313,959.023948,14407.375682,-512.972535,-5047.895616,-0.002000,-0.016000,1.004000,192.000000,127.500000,120.000000,127.500000,64.000000,15.500000,48.000000,0.000000,0.000000,0.000000,1770025103.537725,0.000000
2.000000,19095.676434,-4403.003085,-1693.926954,-1862.794383,-2605.721665,-14628.255621,-1172.997197,1386.299895,-1014.165701,-11170.396050,-3676.459631,-3771.476897,981.062768,14434.667162,-486.396311,-5023.643973,-0.002000,-0.016000,1.004000,192.000000,0.000000,0.000000,0.000000,0.000000,0.000000,0.000000,0.000000,0.000000,0.000000,1770025103.537737,0.000000
4.000000,19067.513236,-4428.461722,-1717.128064,-1890.018808,-2630.085067,-14649.109799,-1200.825119,1359.164877,-1026.347402,-11176.475725,-3700.375998,-3783.591543,974.089023,14427.872232,-488.765596,-5032.964651,-0.002000,-0.016000,1.004000,192.000000,0.000000,0.000000,0.000000,0.000000,0.000000,0.000000,0.000000,0.000000,0.000000,1770025103.537749,0.000000
6.000000,19087.071012,-4416.034152,-1698.263192,-1869.321092,-2610.147311,-14626.981572,-1175.545296,1378.901467,-1036.383335,-11182.443641,-3710.635449,-3794.029807,961.482639,14422.373703,-493.303000,-5036.987965,-0.002000,-0.016000,1.004000,192.000000,0.000000,0.000000,0.000000,0.000000,0.000000,0.000000,0.000000,0.000000,0.000000,1770025103.537761,0.000000
8.000000,19079.918454,-4420.415094,-1708.276773,-1878.686473,-2625.882939,-14635.028200,-1185.692988,1366.630359,-1013.629259,-11169.345518,-3675.856134,-3770.269903,984.460233,14440.992706,-478.908477,-5012.333991,-0.002000,-0.016000,1.004000,192.000000,0.000000,0.000000,0.000000,0.000000,0.000000,0.000000,0.000000,0.000000,0.000000,1770025103.537773,0.000000
10.000000,19062.998183,-4426.986507,-1718.379762,-1890.801119,-2638.221102,-14647.858101,-1197.405302,1357.019109,-1047.358042,-11193.060719,-3730.126170,-3801.227069,955.112392,14408.046235,-509.396256,-5039.424305,0.004000,-0.016000,1.006000,192.000000,0.000000,16.000000,127.500000,64.000000,15.500000,56.000000,0.000000,0.000000,0.000000,1770025103.537785,0.000000
12.000000,19087.696861,-4406.624068,-1701.370084,-1870.170459,-2614.908232,-14625.305191,-1177.691064,1376.018092,-1021.161797,-11171.379527,-3687.836669,-3778.428290,978.760538,14433.370761,-491.313695,-5021.274688,0.004000,-0.016000,1.006000,192.000000,0.000000,0.000000,0.000000,0.000000,0.000000,0.000000,0.000000,0.000000,0.000000,1770025103.537797,0.000000
14.000000,19070.642480,-4428.461722,-1719.519701,-1890.644656,-2637.081163,-14645.689982,-1200.825119,1355.946226,-1026.414457,-11177.526257,-3707.908536,-3788.017188,968.545791,14426.374665,-499.136805,-5032.092933,0.004000,-0.016000,1.006000,192.000000,0.000000,0.000000,0.000000,0.000000,0.000000,0.000000,0.000000,0.000000,0.000000,1770025103.537809,0.000000
16.000000,19085.171114,-4408.121634,-1702.420616,-1871.310398,-2619.110360,-14632.033066,-1178.629837,1378.029749,-1037.120943,-11181.974254,-3716.715123,-3791.325246,962.376709,14418.037464,-505.104721,-5039.893692,0.004000,-0.016000,1.006000,192.000000,0.000000,0.000000,0.000000,0.000000,0.000000,0.000000,0.000000,0.000000,0.000000,1770025103.537820,0.000000
18.000000,19082.377146,-4416.838815,-1708.209718,-1877.434776,-2628.922776,-14641.510205,-1184.351883,1371.100708,-1011.997582,-11160.740097,-3674.202105,-3763.922008,983.767329,14443.317287,-486.150442,-5019.218328,0.004000,-0.016000,1.006000,192.000000,0.000000,0.000000,0.000000,0.000000,0.000000,0.000000,0.000000,0.000000,0.000000,1770025103.537832,0.000000
20.000000,19068.161436,-4425.041905,-1721.933689,-1890.868174,-2644.993680,-14654.630679,-1196.935916,1355.275673,-1047.089821,-11188.903295,-3732.115475,-3797.315514,951.781982,14410.303761,-516.325297,-5048.968500,0.004000,-0.016000,1.006000,192.000000,0.000000,0.000000,127.500000,56.000000,15.500000,40.000000,0.000000,0.000000,0.000000,1770025103.537844,0.000000
22.000000,19082.198332,-4410.960306,-1702.130044,-1871.489211,-2620.853796,-14634.201185,-1175.567648,1374.118194,-1027.062658,-11170.977196,-3690.854155,-3777.869496,978.224096,14431.739084,-498.667419,-5030.260090,0.004000,-0.016000,1.006000,192.000000,0.000000,0.000000,0.000000,0.000000,0.000000,0.000000,0.000000,0.000000,0.000000,1770025103.537855,0.000000
24.000000,19058.661945,-4440.844588,-1721.330192,-1897.283125,-2643.607872,-14656.374116,-1201.093340,1349.732441,-1036.584501,-11183.047138,-3709.383751,-3792.554592,963.717814,14422.016075,-503.584803,-5036.719744,0.004000,-0.016000,1.006000,192.000000,0.000000,0.000000,0.000000,0.000000,0.000000,0.000000,0.000000,0.000000,0.000000,1770025103.537867,0.000000
26.000000,19081.483076,-4412.077893,-1702.554727,-1871.489211,-2622.060790,-14632.725970,-1175.724110,1374.006435,-1041.680699,-11191.786670,-3717.676248,-3796.890831,957.526381,14412.114252,-507.764579,-5037.569110,0.004000,-0.016000,1.006000,192.000000,0.000000,0.000000,0.000000,0.000000,0.000000,0.000000,0.000000,0.000000,0.000000,1770025103.537880,0.000000
28.000000,19070.731887,-4423.946670,-1713.551785,-1880.876944,-2628.766314,-14637.308077,-1186.676465,1360.573037,-1023.665193,-11167.803248,-3681.175850,-3771.208676,976.972398,14438.556366,-483.445881,-5008.847118,0.004000,-0.016000,1.006000,192.000000,0.000000,0.000000,0.000000,0.000000,0.000000,0.000000,0.000000,0.000000,0.000000,1770025103.537892,0.000000
30.000000,19055.957384,-4438.408248,-1723.744181,-1892.298686,-2635.136561,-14648.685115,-1197.740578,1347.564321,-1058.355100,-11196.122908,-3739.245682,-3804.445720,945.210570,14406.503964,-507.764579,-5041.368907,0.004000,-0.018000,1.006000,192.000000,0.000000,16.000000,127.500000,56.000000,15.500000,56.000000,0.000000,0.000000,0.000000,1770025103.537904,0.000000
32.000000,19078.085611,-4417.554071,-1697.525584,-1872.785613,-2615.355267,-14634.402351,-1174.628875,1372.262999,-1024.179283,-11179.292045,-3693.044626,-3782.898639,979.364035,14425.838223,-488.922058,-5026.013258,0.004000,-0.018000,1.006000,192.000000,0.000000,0.000000,0.000000,0.000000,0.000000,0.000000,0.000000,0.000000,0.000000,1770025103.537916,0.000000
34.000000,19059.600718,-4441.425734,-1724.057105,-1900.345314,-2649.665195,-14666.186531,-1202.032113,1350.917083,-1032.248262,-11184.164725,-3707.953239,-3789.961790,966.288265,14414.572944,-503.562451,-5042.084162,0.004000,-0.018000,1.006000,192.000000,0.000000,0.000000,0.000000,0.000000,0.000000,0.000000,0.000000,0.000000,0.000000,1770025103.537928,0.000000
36.000000,19076.990375,-4422.940841,-1703.247631,-1877.367720,-2630.956785,-14646.941679,-1173.176011,1374.766394,-1046.061641,-11194.290065,-3721.923080,-3796.913182,962.689634,14403.598237,-516.258242,-5055.830485,0.004000,-0.018000,1.006000,192.000000,0.000000,0.000000,0.000000,0.000000,0.000000,0.000000,0.000000,0.000000,0.000000,1770025103.537942,0.000000
38.000000,19069.569596,-4433.893196,-1709.684933,-1887.694226,-2643.831389,-14661.827941,-1180.127404,1365.356310,-1022.882882,-11173.145315,-3682.360492,-3773.779127,971.630331,14424.541822,-495.962858,-5036.876206,0.004000,-0.018000,1.006000,192.000000,0.000000,0.000000,0.000000,0.000000,0.000000,0.000000,0.000000,0.000000,0.000000,1770025103.537957,0.000000
40.000000,19054.906852,-4450.791115,-1718.312707,-1895.629096,-2655.186076,-14673.719069,-1186.855279,1354.985101,-1054.287082,-11205.331827,-3731.713144,-3806.747950,942.930692,14386.856781,-521.376791,-5065.821715,0.002000,-0.018000,1.008000,192.000000,0.000000,8.000000,127.500000,56.000000,15.500000,64.000000,0.000000,0.000000,0.000000,1770025103.537969,0.000000
42.000000,19065.658041,-4430.741600,-1704.499329,-1873.120889,-2631.962613,-14649.936813,-1170.136174,1370.161935,-1035.757486,-11187.919818,-3692.821108,-3782.876287,961.527343,14407.398034,-498.376846,-5037.166779,0.002000,-0.018000,1.008000,192.000000,0.000000,0.000000,0.000000,0.000000,0.000000,0.000000,0.000000,0.000000,0.000000,1770025103.537980,0.000000
44.000000,19044.915622,-4458.524818,-1730.002669,-1898.713636,-2653.107363,-14665.940662,-1200.132215,1340.300005,-1048.140353,-11195.295894,-3720.760789,-3788.978313,952.407831,14401.251304,-503.964782,-5035.982136,0.002000,-0.018000,1.008000,192.000000,0.000000,0.000000,0.000000,0.000000,0.000000,0.000000,0.000000,0.000000,0.000000,1770025103.537992,0.000000
46.000000,19070.128390,-4433.446161,-1711.115445,-1879.804060,-2626.799360,-14643.365400,-1181.244991,1358.941359,-1058.109231,-11204.661275,-3735.848217,-3806.479729,946.663433,14393.249380,-510.178567,-5041.123037,0.002000,-0.018000,1.008000,192.000000,0.000000,0.000000,0.000000,0.000000,0.000000,0.000000,0.000000,0.000000,0.000000,1770025103.538004,0.000000
48.000000,19063.959308,-4442.342155,-1714.602317,-1888.945924,-2632.186131,-14645.757037,-1189.336322,1348.860723,-1024.983945,-11179.940245,-3690.496527,-3787.167822,978.246448,14421.256116,-488.586782,-5016.156139,0.002000,-0.018000,1.008000,192.000000,0.000000,0.000000,0.000000,0.000000,0.000000,0.000000,0.000000,0.000000,0.000000,1770025103.538016,0.000000
50.000000,19049.184805,-4458.837743,-1719.810274,-1899.317133,-2640.456276,-14657.715220,-1197.740578,1335.360269,-1055.561132,-11212.573792,-3743.850141,-3822.014191,944.450610,14385.940359,-515.386524,-5049.124962,-0.002000,-0.016000,1.010000,192.000000,127.500000,120.000000,127.500000,64.000000,15.500000,72.000000,0.000000,0.000000,0.000000,1770025103.538028,0.000000
52.000000,19077.973852,-4430.987469,-1692.630552,-1867.488249,-2615.154101,-14631.697790,-1169.711491,1368.038519,-1026.012126,-11186.399899,-3691.725873,-3792.085206,977.039454,14416.383435,-489.771425,-5028.851930,-0.002000,-0.016000,1.010000,192.000000,0.000000,0.000000,0.000000,0.000000,0.000000,0.000000,0.000000,0.000000,0.000000,1770025103.538040,0.000000
54.000000,19056.963212,-4444.845551,-1716.949250,-1889.080034,-2645.060735,-14652.261395,-1194.544279,1352.906388,-1035.601024,-11183.695338,-3704.801643,-3788.307761,966.780003,14413.790633,-498.019218,-5039.513712,-0.002000,-0.016000,1.010000,192.000000,0.000000,0.000000,0.000000,0.000000,0.000000,0.000000,0.000000,0.000000,0.000000,1770025103.538052,0.000000
56.000000,19081.416021,-4421.845606,-1700.051332,-1869.410499,-2627.402857,-14634.469406,-1170.918485,1378.745005,-1042.574768,-11192.591333,-3713.764693,-3793.560421,966.310616,14401.541877,-509.373904,-5048.767334,-0.002000,-0.016000,1.010000,192.000000,0.000000,0.000000,0.000000,0.000000,0.000000,0.000000,0.000000,0.000000,0.000000,1770025103.538064,0.000000
58.000000,19076.230416,-4427.902928,-1712.747122,-1883.112119,-2635.740058,-14647.098142,-1186.207078,1365.445717,-1015.350344,-11170.708975,-3674.380919,-3769.353481,977.754709,14426.240555,-489.704369,-5026.236776,-0.002000,-0.016000,1.010000,192.000000,0.000000,0.000000,0.000000,0.000000,0.000000,0.000000,0.000000,0.000000,0.000000,1770025103.538077,0.000000
60.000000,19059.399552,-4445.739620,-1718.893852,-1895.070302,-2643.809038,-14661.336203,-1198.142910,1351.498228,-1052.454239,-11202.157879,-3732.584862,-3806.636191,951.759631,14391.103612,-516.682925,-5055.226988,0.001000,-0.016000,1.010000,192.000000,0.000000,16.000000,127.500000,64.000000,15.500000,72.000000,0.000000,0.000000,0.000000,1770025103.538089,0.000000
62.000000,19069.748410,-4429.825178,-1705.013419,-1880.385206,-2626.106456,-14652.417857,-1179.970942,1362.428232,-1029.633108,-11185.751699,-3693.268143,-3789.917086,971.809145,14412.427177,-494.979381,-5038.530235,0.001000,-0.016000,1.010000,192.000000,0.000000,0.000000,0.000000,0.000000,0.000000,0.000000,0.000000,0.000000,0.000000,1770025103.538101,0.000000
64.000000,19042.345171,-4462.235208,-1728.818027,-1906.804968,-2655.119020,-14678.144715,-1206.100131,1335.136752,-1046.463972,-11198.983931,-3720.291402,-3805.809177,957.056994,14397.049176,-507.205785,-5055.271692,0.001000,-0.016000,1.010000,192.000000,0.000000,0.000000,0.000000,0.000000,0.000000,0.000000,0.000000,0.000000,0.000000,1770025103.538113,0.000000
66.000000,19069.346079,-4438.430600,-1707.740332,-1878.373549,-2632.096724,-14650.987345,-1178.428671,1361.087127,-1054.354138,-11210.048045,-3732.853083,-3815.085151,949.636215,14386.432098,-515.945317,-5061.708994,0.001000,-0.016000,1.010000,192.000000,0.000000,0.000000,0.000000,0.000000,0.000000,0.000000,0.000000,0.000000,0.000000,1770025103.538124,0.000000
68.000000,19066.574462,-4436.597757,-1711.070742,-1874.506697,-2636.388259,-14646.628755,-1183.793090,1364.886923,-1020.915928,-11180.052004,-3686.495565,-3781.401072,979.118166,14419.915011,-491.090177,-5026.639107,0.001000,-0.016000,1.010000,192.000000,0.000000,0.000000,0.000000,0.000000,0.000000,0.000000,0.000000,0.000000,0.000000,1770025103.538136,0.000000
70.000000,19057.834930,-4445.247882,-1720.883157,-1883.492098,-2646.424192,-14653.781313,-1194.253706,1359.164877,-1051.895446,-11196.391129,-3733.121304,-3799.796557,948.004538,14398.010301,-513.397218,-5040.564244,0.001500,-0.016000,1.011000,192.000000,0.000000,8.000000,127.500000,64.000000,15.500000,80.000000,0.000000,0.000000,0.000000,1770025103.538148,0.000000
72.000000,19069.815465,-4430.473379,-1705.169881,-1872.427985,-2624.072447,-14635.698752,-1177.936933,1372.173592,-1034.416382,-11185.081146,-3691.323542,-3783.368025,971.607980,14413.477709,-492.498337,-5017.765465,0.001500,-0.016000,1.011000,192.000000,0.000000,0.000000,0.000000,0.000000,0.000000,0.000000,0.000000,0.000000,0.000000,1770025103.538162,0.000000
74.000000,19048.514253,-4456.557865,-1721.196082,-1900.121796,-2635.628299,-14652.417857,-1204.244936,1343.295138,-1039.937263,-11194.424176,-3711.238946,-3796.846127,958.174581,14406.325150,-491.984247,-5026.259127,0.001500,-0.016000,1.011000,192.000000,0.000000,0.000000,0.000000,0.000000,0.000000,0.000000,0.000000,0.000000,0.000000,1770025104.017914,0.000000
76.000000,19067.759105,-4439.838760,-1701.928878,-1881.636903,-2607.308639,-14631.787197,-1182.630799,1359.366043,-1048.587388,-11207.142318,-3727.041629,-3811.374761,955.715889,14395.126926,-492.788910,-5041.257148,0.001500,-0.016000,1.011000,192.000000,0.000000,0.000000,0.000000,0.000000,0.000000,0.000000,0.000000,0.000000,0.000000,1770025104.018016,0.000000
78.000000,19069.860169,-4433.334402,-1705.773378,-1884.229706,-2613.298906,-14636.346952,-1189.269267,1356.437964,-1015.149178,-11176.833353,-3685.668550,-3782.406900,989.757596,14428.363970,-473.007616,-5024.918023,0.001500,-0.016000,1.011000,192.000000,0.000000,0.000000,0.000000,0.000000,0.000000,0.000000,0.000000,0.000000,0.000000,1770025104.018079,0.000000
80.000000,19059.019573,-4442.073934,-1712.747122,-1890.935229,-2629.660383,-14651.590842,-1196.578288,1350.335938,-1046.665138,-11197.799289,-3734.797685,-3809.988953,961.504991,14400.312531,-506.557585,-5059.764392,0.001750,-0.015000,1.008500,192.000000,0.000000,8.000000,127.500000,72.000000,15.500000,56.000000,0.000000,0.000000,0.000000,1770025104.018130,0.000000
82.000000,19067.960270,-4430.272213,-1697.592640,-1867.890581,-2615.936412,-14636.235194,-1170.583209,1371.659502,-1027.934376,-11181.817792,-3692.016446,-3785.089110,975.720701,14422.105482,-484.921096,-5033.188168,0.001750,-0.015000,1.008500,192.000000,0.000000,0.000000,0.000000,0.000000,0.000000,0.000000,0.000000,0.000000,0.000000,1770025104.018180,0.000000
84.000000,19044.870918,-4458.770687,-1721.844282,-1894.757377,-2646.088916,-14665.627738,-1196.712398,1348.033708,-1046.419268,-11194.826507,-3715.977516,-3797.740197,963.717814,14407.554496,-495.337009,-5042.553549,0.001750,-0.015000,1.008500,192.000000,0.000000,0.000000,0.000000,0.000000,0.000000,0.000000,0.000000,0.000000,0.000000,1770025104.018213,0.000000
86.000000,19058.192558,-4442.655080,-1706.779207,-1878.194735,-2635.471837,-14655.301232,-1176.640532,1368.798479,-1057.639844,-11206.270600,-3728.829769,-3806.479729,945.903474,14388.890790,-506.848157,-5057.842142,0.001750,-0.015000,1.008500,192.000000,0.000000,0.000000,0.000000,0.000000,0.000000,0.000000,0.000000,0.000000,0.000000,1770025104.018231,0.000000
88.000000,19052.224642,-4447.192484,-1716.189291,-1888.901220,-2651.185113,-14667.460581,-1186.251782,1359.187229,-1033.946995,-11184.835277,-3690.027140,-3784.262095,966.020044,14410.817851,-492.811262,-5043.335860,0.001750,-0.015000,1.008500,192.000000,0.000000,0.000000,0.000000,0.000000,0.000000,0.000000,0.000000,0.000000,0.000000,1770025104.018250,0.000000
90.000000,19049.341267,-4454.590911,-1724.057105,-1895.964372,-2657.935340,-14674.099049,-1195.192480,1349.374813,-1059.986777,-11207.924629,-3739.491551,-3812.782921,936.985128,14382.565246,-519.655707,-5068.570980,0.001750,-0.015000,1.008500,192.000000,0.000000,0.000000,127.500000,80.000000,15.500000,72.000000,0.000000,0.000000,0.000000,1770025104.018279,0.000000
92.000000,19066.373297,-4433.669678,-1705.236936,-1873.411462,-2633.884863,-14649.936813,-1176.059386,1367.680891,-1030.236605,-11185.081146,-3693.871640,-3790.766453,973.038491,14409.767319,-496.231079,-5042.017107,0.001750,-0.015000,1.008500,192.000000,0.000000,0.000000,0.000000,0.000000,0.000000,0.000000,0.000000,0.000000,0.000000,1770025104.018296,0.000000
94.000000,19047.441369,-4449.718231,-1723.006573,-1891.985761,-2651.855666,-14660.889168,-1203.462625,1346.178513,-1043.155914,-11190.467917,-3715.306963,-3798.611915,954.575950,14407.532144,-499.762654,-5043.894654,0.001750,-0.015000,1.008500,192.000000,0.000000,0.000000,0.000000,0.000000,0.000000,0.000000,0.000000,0.000000,0.000000,1770025104.018312,0.000000
96.000000,19075.269291,-4426.584175,-1698.330247,-1862.749679,-2614.952936,-14627.897993,-1179.926238,1373.917028,-1048.229760,-11187.606893,-3723.800626,-3798.276639,956.364090,14408.113290,-500.544965,-5045.593386,0.001750,-0.015000,1.008500,192.000000,0.000000,0.000000,0.000000,0.000000,0.000000,0.000000,0.000000,0.000000,0.000000,1770025104.018329,0.000000
98.000000,19065.747448,-4433.043830,-1703.404093,-1867.845877,-2614.997639,-14629.417912,-1184.865974,1365.736290,-1017.429056,-11162.260015,-3679.700634,-3770.851048,985.734282,14438.489311,-472.448823,-5017.050209,0.001750,-0.015000,1.008500,192.000000,0.000000,0.000000,0.000000,0.000000,0.000000,0.000000,0.000000,0.000000,0.000000,1770025104.018345,0.000000
100.000000,19060.695953,-4452.534551,-1717.820968,-1884.810851,-2633.259014,-14647.589880,-1194.365465,1351.677042,-1051.716632,-11192.278408,-3733.233062,-3805.540956,949.591511,14403.575886,-497.035741,-5045.906311,0.001875,-0.016500,1.008250,192.000000,0.000000,8.000000,127.500000,56.000000,15.500000,64.000000,0.000000,0.000000,0.000000,1770025104.018362,0.000000
102.000000,19059.041924,-4430.965117,-1706.220413,-1868.069395,-2625.525311,-14636.503415,-1175.947628,1366.026862,-1039.289062,-11181.504867,-3697.604382,-3791.660522,962.913151,14417.277505,-485.099910,-5031.735305,0.001875,-0.016500,1.008250,192.000000,0.000000,0.000000,0.000000,0.000000,0.000000,0.000000,0.000000,0.000000,0.000000,1770025104.018378,0.000000
104.000000,19038.277154,-4454.970891,-1727.767495,-1891.717540,-2652.123887,-14658.788104,-1203.216756,1342.378717,-1049.280292,-11187.763356,-3719.218519,-3794.074511,952.139610,14410.080243,-503.204823,-5042.933529,0.001875,-0.016500,1.008250,192.000000,0.000000,0.000000,0.000000,0.000000,0.000000,0.000000,0.000000,0.000000,0.000000,1770025104.018393,0.000000
106.000000,19058.863110,-4439.771705,-1710.511948,-1874.998435,-2633.482532,-14644.371229,-1181.155584,1360.394223,-1058.064527,-11197.016978,-3732.830731,-3805.585659,947.959834,14398.166764,-510.983230,-5055.785782,0.001875,-0.016500,1.008250,192.000000,0.000000,0.000000,0.000000,0.000000,0.000000,0.000000,0.000000,0.000000,0.000000,1770025104.018409,0.000000
108.000000,19050.928241,-4453.450972,-1715.317573,-1885.012017,-2642.311471,-14657.536406,-1183.770738,1354.694528,-1034.841065,-11182.711861,-3695.302152,-3788.173650,968.881067,14417.903354,-488.631486,-5039.916043,0.001875,-0.016500,1.008250,192.000000,0.000000,0.000000,0.000000,0.000000,0.000000,0.000000,0.000000,0.000000,0.000000,1770025104.018426,0.000000
110.000000,19054.884500,-4447.728926,-1718.826797,-1887.783633,-2657.890637,-14667.505284,-1189.358674,1356.214447,-1064.770051,-11204.594219,-3741.860836,-3811.531223,947.065764,14386.901484,-517.152311,-5073.734233,0.001937,-0.012250,1.008125,192.000000,0.000000,8.000000,127.500000,96.000000,15.500000,64.000000,0.000000,0.000000,0.000000,1770025104.018441,0.000000
112.000000,19064.115770,-4430.406324,-1705.885137,-1864.716633,-2637.438790,-14645.958203,-1173.511287,1367.971464,-1037.255053,-11180.364928,-3694.542193,-3784.575019,957.034642,14416.741063,-499.472082,-5047.940320,0.001937,-0.012250,1.008125,192.000000,0.000000,0.000000,0.000000,0.000000,0.000000,0.000000,0.000000,0.000000,0.000000,1770025104.018458,0.000000
114.000000,19044.178014,-4456.580216,-1731.254367,-1890.108215,-2663.567980,-14671.416840,-1203.864956,1337.729554,-1048.676795,-11189.618550,-3721.945431,-3796.935534,953.927750,14407.308627,-509.709181,-5052.276558,0.001937,-0.012250,1.008125,192.000000,0.000000,0.000000,0.000000,0.000000,0.000000,0.000000,0.000000,0.000000,0.000000,1770025104.018474,0.000000
116.000000,19062.729962,-4437.804751,-1711.987163,-1873.836145,-2640.702145,-14650.205034,-1182.787261,1358.360214,-1060.389109,-11200.257981,-3736.094086,-3810.950078,942.371898,14394.791650,-516.548814,-5057.529218,0.001937,-0.012250,1.008125,192.000000,0.000000,0.000000,0.000000,0.000000,0.000000,0.000000,0.000000,0.000000,0.000000,1770025104.018489,0.000000
118.000000,19070.307204,-4439.816408,-1709.059085,-1879.155860,-2632.476703,-14648.349839,-1190.051578,1358.315511,-1023.821655,-11177.638015,-3687.076710,-3785.849069,977.285323,14422.552517,-488.698541,-5031.690601,0.001937,-0.012250,1.008125,192.000000,0.000000,0.000000,0.000000,0.000000,0.000000,0.000000,0.000000,0.000000,0.000000,1770025104.018508,0.000000
120.000000,19061.545320,-4446.678394,-1714.043524,-1887.202488,-2620.831444,-14646.427589,-1202.434445,1347.653728,-1045.167571,-11195.519411,-3732.316641,-3809.877194,958.353395,14401.430118,-496.566355,-5053.997642,0.001937,-0.012250,1.008125,192.000000,0.000000,0.000000,0.000000,0.000000,0.000000,0.000000,0.000000,0.000000,0.000000,1770025104.018526,0.000000
122.000000,19072.408268,-4432.797960,-1700.855994,-1864.515467,-2592.176508,-14622.555926,-1184.597753,1360.304816,-1024.223986,-11173.949978,-3695.860946,-3788.330112,984.527288,14429.749778,-463.530477,-5026.393238,0.001937,-0.012250,1.008125,192.000000,0.000000,0.000000,127.500000,80.000000,15.500000,64.000000,0.000000,0.000000,0.000000,1770025104.018549,0.000000
124.000000,19048.760122,-4455.507333,-1726.180521,-1891.136395,-2631.694392,-14648.595708,-1209.005858,1335.024993,-1039.020841,-11184.857629,-3718.771484,-3798.991895,969.529267,14419.244459,-478.729663,-5034.842197,0.001937,-0.012250,1.008125,192.000000,0.000000,0.000000,0.000000,0.000000,0.000000,0.000000,0.000000,0.000000,0.000000,1770025104.018564,0.000000
126.000000,19073.235282,-4429.869882,-1705.035771,-1869.745775,-2622.708991,-14632.681266,-1182.809613,1362.070604,-1046.508675,-11191.049062,-3726.371077,-3805.831528,961.035605,14407.085110,-499.047398,-5046.822732,0.001937,-0.012250,1.008125,192.000000,0.000000,0.000000,0.000000,0.000000,0.000000,0.000000,0.000000,0.000000,0.000000,1770025104.018586,0.000000
128.000000,19070.374259,-4436.262481,-1709.640230,-1878.127680,-2635.136561,-14642.627793,-1190.766834,1356.840295,-1018.948974,-11170.038422,-3679.365358,-3779.635284,981.688616,14430.912069,-485.971628,-5029.298965,0.001937,-0.012250,1.008125,192.000000,0.000000,0.000000,0.000000,0.000000,0.000000,0.000000,0.000000,0.000000,0.000000,1770025104.018625,0.000000
130.000000,19056.247956,-4451.394612,-1720.816102,-1888.074206,-2646.357137,-14658.653993,-1200.512195,1343.518656,-1049.012071,-11197.620475,-3731.534330,-3810.346581,955.179448,14396.177458,-511.854948,-5059.786744,0.001937,-0.012250,1.008125,192.000000,0.000000,0.000000,0.000000,0.000000,0.000000,0.000000,0.000000,0.000000,0.000000,1770025104.018643,0.000000
132.000000,19071.625956,-4436.418943,-1702.174747,-1870.416328,-2629.772142,-14644.058304,-1179.456851,1363.143487,-1032.024745,-11183.516524,-3695.749187,-3791.437005,968.612846,14412.628342,-498.332143,-5044.811075,-0.002000,-0.008000,1.008000,192.000000,127.500000,120.000000,127.500000,96.000000,15.500000,64.000000,0.000000,0.000000,0.000000,1770025104.018659,0.000000
134.000000,19053.096360,-4449.047679,-1721.486654,-1895.092654,-2655.633110,-14668.801685,-1203.484977,1343.563359,-1038.439696,-11188.992702,-3709.249641,-3794.476842,961.236770,14406.503964,-507.161082,-5054.802305,-0.002000,-0.008000,1.008000,192.000000,0.000000,0.000000,0.000000,0.000000,0.000000,0.000000,0.000000,0.000000,0.000000,1770025104.018675,0.000000
136.000000,19077.079782,-4426.874748,-1704.387570,-1872.651502,-2636.991756,-14652.149636,-1180.440328,1368.932589,-1043.781763,-11190.602027,-3720.090237,-3799.550688,954.643006,14399.485516,-518.940451,-5067.095765,-0.002000,-0.008000,1.008000,192.000000,0.000000,0.000000,0.000000,0.000000,0.000000,0.000000,0.000000,0.000000,0.000000,1770025104.018692,0.000000
138.000000,19070.933052,-4433.267347,-1711.942460,-1875.780746,-2643.339651,-14654.809493,-1188.822232,1362.718804,-1020.938280,-11167.713841,-3677.040777,-3770.269903,978.537021,14425.905278,-498.287439,-5043.671136,-0.002000,-0.008000,1.008000,192.000000,0.000000,0.000000,0.000000,0.000000,0.000000,0.000000,0.000000,0.000000,0.000000,1770025104.018709,0.000000
140.000000,19062.953480,-4444.040888,-1720.905509,-1881.413386,-2647.742945,-14655.256528,-1199.886346,1352.258188,-1050.464934,-11192.189001,-3727.578071,-3798.097825,948.362165,14400.893676,-521.265032,-5062.960692,-0.002000,-0.008000,1.008000,192.000000,0.000000,0.000000,0.000000,0.000000,0.000000,0.000000,0.000000,0.000000,0.000000,1770025104.018726,0.000000
142.000000,19084.768782,-4418.448140,-1696.117425,-1860.939188,-2607.576860,-14627.987400,-1178.495726,1374.386415,-1024.738076,-11171.826562,-3686.696730,-3775.634322,974.916038,14425.994685,-493.079483,-5030.260090,0.004000,-0.010000,1.008000,192.000000,0.000000,16.000000,127.500000,88.000000,15.500000,64.000000,0.000000,0.000000,0.000000,1770025104.018743,0.000000
144.000000,19068.876692,-4446.007841,-1716.636326,-1888.856517,-2624.787703,-14646.964031,-1207.016552,1348.614853,-1025.632146,-11175.894579,-3701.091254,-3785.625551,983.163832,14420.607915,-485.390483,-5029.522482,0.004000,-0.010000,1.008000,192.000000,0.000000,0.000000,0.000000,0.000000,0.000000,0.000000,0.000000,0.000000,0.000000,1770025104.018760,0.000000
146.000000,19072.743544,-4428.327611,-1702.286506,-1872.115060,-2609.052075,-14631.094293,-1186.497651,1366.049214,-1042.440658,-11190.803193,-3720.336106,-3801.383531,960.007424,14403.106499,-495.605230,-5043.201750,0.004000,-0.010000,1.008000,192.000000,0.000000,0.000000,0.000000,0.000000,0.000000,0.000000,0.000000,0.000000,0.000000,1770025104.018776,0.000000
148.000000,19078.800866,-4428.282908,-1706.287468,-1871.109232,-2613.678886,-14631.809548,-1189.492785,1366.205676,-1016.512634,-11167.266806,-3676.660797,-3778.137717,981.129823,14428.788653,-473.432299,-5022.973421,0.004000,-0.010000,1.008000,192.000000,0.000000,0.000000,0.000000,0.000000,0.000000,0.000000,0.000000,0.000000,0.000000,1770025104.018794,0.000000
150.000000,19074.598739,-4435.860149,-1714.356448,-1879.669950,-2625.905290,-14640.347915,-1196.466529,1359.813077,-1039.244358,-11181.773088,-3720.425513,-3790.431176,963.270779,14407.330979,-502.266050,-5048.521465,0.004000,-0.010000,1.008000,192.000000,0.000000,0.000000,0.000000,0.000000,0.000000,0.000000,0.000000,0.000000,0.000000,1770025104.018811,0.000000
152.000000,19091.429602,-4411.720265,-1695.737445,-1859.620435,-2610.102607,-14622.175946,-1174.874744,1377.962694,-1016.467931,-11165.992757,-3681.600533,-3771.745118,983.722625,14428.922764,-491.850137,-5034.238700,0.004000,-0.012000,1.004000,192.000000,0.000000,16.000000,127.500000,80.000000,15.500000,48.000000,0.000000,0.000000,0.000000,1770025104.018827,0.000000
154.000000,19068.630823,-4439.928167,-1717.597451,-1885.906087,-2640.009241,-14650.741476,-1198.902869,1354.180438,-1022.100570,-11171.200713,-3699.392521,-3781.825755,975.877163,14422.194889,-501.506090,-5045.615738,0.004000,-0.012000,1.004000,192.000000,0.000000,0.000000,0.000000,0.000000,0.000000,0.000000,0.000000,0.000000,0.000000,1770025104.018849,0.000000
156.000000,19080.343137,-4428.864053,-1704.029942,-1867.778822,-2628.498093,-14641.800778,-1179.523907,1371.905371,-1040.920739,-11185.751699,-3717.631545,-3795.683836,959.292169,14402.435947,-507.049323,-5058.222122,0.004000,-0.012000,1.004000,192.000000,0.000000,0.000000,0.000000,0.000000,0.000000,0.000000,0.000000,0.000000,0.000000,1770025104.018867,0.000000
158.000000,19076.565692,-4427.679411,-1705.952192,-1874.685511,-2633.661346,-14650.830883,-1187.101148,1368.306740,-1017.965498,-11171.535989,-3678.247771,-3774.226162,981.241582,14421.747854,-486.709236,-5039.826636,0.004000,-0.012000,1.004000,192.000000,0.000000,0.000000,0.000000,0.000000,0.000000,0.000000,0.000000,0.000000,0.000000,1770025104.018884,0.000000
160.000000,19073.324689,-4434.809617,-1709.528471,-1882.530973,-2633.817808,-14655.122418,-1193.985485,1362.539990,-1040.361946,-11190.266751,-3721.923080,-3797.986066,956.297035,14397.250342,-504.925907,-5066.894599,0.004000,-0.012000,1.004000,192.000000,0.000000,0.000000,0.000000,0.000000,0.000000,0.000000,0.000000,0.000000,0.000000,1770025104.018900,0.000000
162.000000,19085.841666,-4415.453007,-1695.648038,-1865.275427,-2610.974325,-14633.329467,-1176.148793,1374.453470,-1016.758504,-11170.530161,-3682.449899,-3777.914200,984.415529,14421.881964,-481.613038,-5043.224101,0.004000,-0.016000,1.002000,192.000000,0.000000,16.000000,127.500000,64.000000,15.500000,40.000000,0.000000,0.000000,0.000000,1770025104.018917,0.000000
164.000000,19061.880596,-4449.271196,-1718.290355,-1888.118909,-2645.932453,-14655.301232,-1199.685180,1351.542932,-1029.744867,-11179.180286,-3704.980457,-3790.565287,972.144422,14411.354293,-490.285515,-5046.666270,0.004000,-0.016000,1.002000,192.000000,0.000000,0.000000,0.000000,0.000000,0.000000,0.000000,0.000000,0.000000,0.000000,1770025104.018933,0.000000
166.000000,19080.521951,-4421.152702,-1703.046465,-1862.772031,-2631.493226,-14630.960182,-1179.210982,1373.402938,-1048.050946,-11190.937303,-3723.174777,-3796.980238,952.586645,14398.613798,-504.188300,-5049.817866,0.004000,-0.016000,1.002000,192.000000,0.000000,0.000000,0.000000,0.000000,0.000000,0.000000,0.000000,0.000000,0.000000,1770025104.018951,0.000000
168.000000,19079.493771,-4426.360658,-1707.338000,-1867.801174,-2626.128808,-14630.736665,-1192.174994,1364.663406,-1020.826521,-11163.690527,-3680.460594,-3768.861743,978.425262,14432.320229,-477.567372,-5015.664401,0.004000,-0.016000,1.002000,192.000000,0.000000,0.000000,0.000000,0.000000,0.000000,0.000000,0.000000,0.000000,0.000000,1770025104.018968,0.000000
170.000000,19080.790172,-4432.999126,-1712.411846,-1878.641770,-2625.592366,-14633.843557,-1203.328514,1355.163915,-1041.278367,-11181.504867,-3729.299155,-3798.455453,960.990901,14410.661389,-494.130015,-5040.564244,0.004000,-0.016000,1.002000,192.000000,0.000000,0.000000,0.000000,0.000000,0.000000,0.000000,0.000000,0.000000,0.000000,1770025104.018987,0.000000
172.000000,19090.870808,-4412.457873,-1693.345808,-1860.827429,-2603.151214,-14621.550098,-1177.691064,1376.107499,-1010.276498,-11158.370812,-3684.059225,-3775.254342,992.350399,14434.421293,-471.957084,-5026.996735,0.004000,-0.016000,1.002000,192.000000,0.000000,0.000000,127.500000,48.000000,15.500000,64.000000,0.000000,0.000000,0.000000,1770025104.019004,0.000000
174.000000,19070.530721,-4434.988431,-1718.290355,-1884.341465,-2637.662308,-14648.260432,-1202.903831,1353.867513,-1022.569957,-11171.983024,-3703.013504,-3783.703301,977.374730,14418.283334,-486.083387,-5041.547721,0.004000,-0.016000,1.002000,192.000000,0.000000,0.000000,0.000000,0.000000,0.000000,0.000000,0.000000,0.000000,0.000000,1770025104.019022,0.000000
176.000000,19092.055451,-4410.803844,-1701.012457,-1862.816735,-2617.054000,-14627.361551,-1182.787261,1376.621589,-1036.986832,-11179.135582,-3719.397333,-3791.191136,959.828610,14406.839240,-502.467215,-5053.774125,0.004000,-0.016000,1.002000,192.000000,0.000000,0.000000,0.000000,0.000000,0.000000,0.000000,0.000000,0.000000,0.000000,1770025104.019039,0.000000
178.000000,19098.246884,-4412.480225,-1704.722846,-1863.420232,-2615.601136,-14622.935906,-1188.643418,1371.592447,-1005.604983,-11150.793570,-3676.034948,-3760.837467,995.032608,14439.897470,-480.786023,-5025.968555,0.004000,-0.016000,1.002000,192.000000,0.000000,0.000000,0.000000,0.000000,0.000000,0.000000,0.000000,0.000000,0.000000,1770025104.019056,0.000000
180.000000,19082.377146,-4428.819350,-1712.501253,-1879.893467,-2625.927642,-14635.117607,-1197.539413,1357.175572,-1030.236605,-11169.725498,-3722.660687,-3790.274714,970.088061,14416.629304,-501.036704,-5048.789686,0.004000,-0.016000,1.002000,192.000000,0.000000,0.000000,0.000000,0.000000,0.000000,0.000000,0.000000,0.000000,0.000000,1770025104.019072,0.000000
182.000000,19095.788192,-4412.502576,-1698.419654,-1865.923627,-2611.108436,-14629.864947,-1177.869878,1371.614798,-1013.092817,-11165.098687,-3686.182640,-3777.131889,985.443710,14425.190023,-482.417701,-5038.172607,0.004000,-0.018000,1.006000,192.000000,0.000000,16.000000,127.500000,56.000000,15.500000,56.000000,0.000000,0.000000,0.000000,1770025104.019088,0.000000
184.000000,19076.588044,-4430.227510,-1721.106675,-1886.643694,-2645.552474,-14659.503360,-1202.322686,1352.816981,-1023.508730,-11170.641919,-3704.444016,-3781.021092,972.412643,14411.913086,-490.620791,-5051.002509,0.004000,-0.018000,1.006000,192.000000,0.000000,0.000000,0.000000,0.000000,0.000000,0.000000,0.000000,0.000000,0.000000,1770025104.019104,0.000000
186.000000,19082.444201,-4418.045809,-1704.208756,-1862.056775,-2627.380505,-14638.515072,-1179.590962,1371.547743,-1047.603911,-11179.336748,-3723.644164,-3788.598333,949.658567,14398.658502,-506.177605,-5057.484514,0.004000,-0.018000,1.006000,192.000000,0.000000,0.000000,0.000000,0.000000,0.000000,0.000000,0.000000,0.000000,0.000000,1770025104.019124,0.000000
188.000000,19074.531683,-4431.613318,-1711.294259,-1868.985816,-2626.464084,-14634.402351,-1189.202212,1356.639130,-1027.464989,-11162.528236,-3684.886239,-3766.917141,979.028759,14428.073398,-482.998846,-5025.968555,0.004000,-0.018000,1.006000,192.000000,0.000000,0.000000,0.000000,0.000000,0.000000,0.000000,0.000000,0.000000,0.000000,1770025104.019141,0.000000
190.000000,19070.776590,-4437.648289,-1717.686858,-1880.139337,-2628.811017,-14638.179796,-1201.607430,1346.469086,-1053.102440,-11184.879981,-3736.228196,-3800.087130,958.018119,14403.620589,-504.076541,-5049.124962,0.004000,-0.018000,1.006000,192.000000,0.000000,0.000000,0.000000,0.000000,0.000000,0.000000,0.000000,0.000000,0.000000,1770025104.019157,0.000000
192.000000,19086.378108,-4427.210024,-1698.821986,-1860.983892,-2604.067636,-14621.013656,-1177.132270,1365.848048,-1024.067524,-11170.574864,-3690.675341,-3782.295141,985.555468,14424.295953,-476.561544,-5030.617718,0.004000,-0.017000,1.007000,192.000000,0.000000,16.000000,127.500000,64.000000,15.500000,64.000000,0.000000,0.000000,0.000000,1770025104.019173,0.000000
194.000000,19061.098285,-4442.588024,-1721.956041,-1885.548459,-2638.936357,-14649.065095,-1202.859128,1345.150333,-1041.054850,-11181.638978,-3711.775388,-3791.571115,974.223134,14411.846031,-484.272895,-5041.950052,0.004000,-0.017000,1.007000,192.000000,0.000000,0.000000,0.000000,0.000000,0.000000,0.000000,0.000000,0.000000,0.000000,1770025104.498776,0.000000
196.000000,19081.840704,-4424.281946,-1707.181538,-1864.984854,-2622.418418,-14631.250755,-1183.837793,1366.362139,-1053.594178,-11189.059757,-3726.594594,-3798.231935,954.955930,14399.910200,-499.226212,-5054.444677,0.004000,-0.017000,1.007000,192.000000,0.000000,0.000000,0.000000,0.000000,0.000000,0.000000,0.000000,0.000000,0.000000,1770025104.498844,0.000000
198.000000,19073.905834,-4430.115751,-1715.786960,-1872.025653,-2622.306659,-14631.764845,-1192.733788,1353.733403,-1027.241472,-11163.221140,-3687.210821,-3774.449679,975.854811,14428.587488,-478.126166,-5029.008392,0.004000,-0.017000,1.007000,192.000000,0.000000,0.000000,0.000000,0.000000,0.000000,0.000000,0.000000,0.000000,0.000000,1770025104.498898,0.000000
200.000000,19063.825198,-4443.549149,-1725.420561,-1883.872078,-2631.135599,-14638.783293,-1205.854262,1338.511865,-1060.545571,-11187.606893,-3745.057135,-3807.507909,947.199875,14403.173554,-498.443901,-5053.550607,0.004000,-0.017000,1.007000,192.000000,0.000000,0.000000,0.000000,0.000000,0.000000,0.000000,0.000000,0.000000,0.000000,1770025104.498952,0.000000
202.000000,19080.633710,-4427.679411,-1706.913317,-1863.710804,-2610.549642,-14622.108891,-1181.356750,1360.707147,-1036.562149,-11172.072431,-3703.818167,-3782.026921,975.094852,14424.452415,-476.203916,-5035.021011,0.004000,-0.017500,1.005500,192.000000,0.000000,16.000000,127.500000,56.000000,15.500000,48.000000,0.000000,0.000000,0.000000,1770025104.499005,0.000000
204.000000,19062.037058,-4443.236225,-1728.907434,-1888.655351,-2645.507770,-14652.373153,-1204.714323,1343.809228,-1047.827428,-11181.057832,-3718.972649,-3790.162956,965.349491,14412.784804,-489.324390,-5044.185226,0.004000,-0.017500,1.005500,192.000000,0.000000,0.000000,0.000000,0.000000,0.000000,0.000000,0.000000,0.000000,0.000000,1770025104.499059,0.000000
206.000000,19085.796962,-4423.231414,-1703.314686,-1866.013034,-2620.540872,-14634.245889,-1179.590962,1371.726557,-1056.723423,-11185.975216,-3729.321507,-3797.270810,949.211532,14402.100671,-502.333105,-5055.763430,0.004000,-0.017500,1.005500,192.000000,0.000000,0.000000,0.000000,0.000000,0.000000,0.000000,0.000000,0.000000,0.000000,1770025104.499079,0.000000
208.000000,19084.701727,-4417.308201,-1703.873480,-1872.115060,-2620.518520,-14634.178833,-1186.765872,1364.641054,-1023.486379,-11159.644861,-3678.963027,-3769.174667,986.315428,14431.269697,-478.215573,-5034.596328,0.004000,-0.017500,1.005500,192.000000,0.000000,0.000000,0.000000,0.000000,0.000000,0.000000,0.000000,0.000000,0.000000,1770025104.499097,0.000000
210.000000,19072.095343,-4436.485998,-1715.988125,-1884.475575,-2635.158913,-14646.919328,-1198.992276,1349.240702,-1046.911007,-11179.090879,-3728.315679,-3794.834470,960.365052,14406.034578,-497.795701,-5056.769259,0.004000,-0.017500,1.005500,192.000000,0.000000,0.000000,0.000000,0.000000,0.000000,0.000000,0.000000,0.000000,0.000000,1770025104.499115,0.000000
212.000000,19086.735736,-4419.655135,-1702.040637,-1863.442583,-2619.065657,-14630.513147,-1176.014683,1369.089051,-1036.048059,-11171.535989,-3696.799719,-3779.769394,971.160945,14419.110348,-485.099910,-5038.083200,0.004000,-0.016750,1.005750,192.000000,0.000000,16.000000,127.500000,64.000000,15.500000,56.000000,0.000000,0.000000,0.000000,1770025104.499131,0.000000
214.000000,19068.452009,-4441.425734,-1724.392381,-1885.615514,-2645.932453,-14650.473255,-1200.556898,1351.140601,-1044.049984,-11178.666196,-3712.445940,-3785.916124,964.701291,14413.298895,-492.230116,-5039.580767,0.004000,-0.016750,1.005750,192.000000,0.000000,0.000000,0.000000,0.000000,0.000000,0.000000,0.000000,0.000000,0.000000,1770025104.499148,0.000000
216.000000,19085.975776,-4417.375257,-1705.728675,-1865.007206,-2627.648726,-14635.095255,-1179.322741,1374.721691,-1053.013033,-11184.410594,-3724.158254,-3790.744101,949.591511,14402.659464,-499.963820,-5051.896578,0.004000,-0.016750,1.005750,192.000000,0.000000,0.000000,0.000000,0.000000,0.000000,0.000000,0.000000,0.000000,0.000000,1770025104.499164,0.000000
218.000000,19075.537512,-4428.171149,-1710.333134,-1876.786575,-2631.984965,-14644.415932,-1188.665770,1361.936493,-1028.716687,-11165.813943,-3683.723948,-3767.654749,976.480660,14427.335790,-475.801584,-5035.490398,0.004000,-0.016750,1.005750,192.000000,0.000000,0.000000,0.000000,0.000000,0.000000,0.000000,0.000000,0.000000,0.000000,1770025104.499190,0.000000
220.000000,19069.591948,-4441.917472,-1717.843320,-1886.107252,-2640.813904,-14650.495607,-1199.104035,1350.157124,-1055.427021,-11188.791536,-3735.356478,-3797.069645,956.677014,14399.664330,-497.013390,-5063.072451,0.004000,-0.016750,1.005750,192.000000,0.000000,0.000000,0.000000,0.000000,0.000000,0.000000,0.000000,0.000000,0.000000,1770025104.499206,0.000000
222.000000,19090.490829,-4414.089550,-1698.844337,-1860.402746,-2617.970421,-14627.316848,-1175.701758,1371.257171,-1033.075277,-11170.910140,-3696.442091,-3777.355406,971.093890,14423.156014,-480.629561,-5039.334898,0.004000,-0.016375,1.007875,192.000000,0.000000,16.000000,127.500000,64.000000,15.500000,72.000000,0.000000,0.000000,0.000000,1770025104.499223,0.000000
224.000000,19061.478265,-4450.388783,-1720.100846,-1885.414348,-2644.725459,-14652.596671,-1199.528718,1347.407859,-1042.150085,-11176.319263,-3709.830786,-3784.932647,967.249390,14419.244459,-485.569297,-5039.848988,0.004000,-0.016375,1.007875,192.000000,0.000000,0.000000,0.000000,0.000000,0.000000,0.000000,0.000000,0.000000,0.000000,1770025104.499240,0.000000
226.000000,19069.793113,-4435.882501,-1709.014381,-1871.913895,-2630.420343,-14639.900880,-1183.413110,1359.991891,-1057.438678,-11195.407652,-3731.534330,-3801.696456,948.183352,14399.172592,-498.578012,-5051.941282,0.004000,-0.016375,1.007875,192.000000,0.000000,0.000000,0.000000,0.000000,0.000000,0.000000,0.000000,0.000000,0.000000,1770025104.499257,0.000000
228.000000,19067.669698,-4437.380068,-1714.892890,-1875.423119,-2638.891654,-14640.146749,-1191.035055,1351.587635,-1033.857588,-11174.732289,-3693.268143,-3779.344711,979.654608,14424.608877,-477.790889,-5029.321316,0.004000,-0.016375,1.007875,192.000000,0.000000,0.000000,0.000000,0.000000,0.000000,0.000000,0.000000,0.000000,0.000000,1770025104.499278,0.000000
230.000000,19061.746485,-4453.003937,-1725.912300,-1885.928438,-2650.112230,-14650.964993,-1203.104997,1340.858798,-1063.652463,-11194.513583,-3744.453638,-3805.205680,942.282491,14398.211467,-503.316582,-5059.317357,0.004000,-0.016375,1.007875,192.000000,0.000000,0.000000,0.000000,0.000000,0.000000,0.000000,0.000000,0.000000,0.000000,1770025104.499297,0.000000
232.000000,19086.691032,-4423.656097,-1702.800596,-1860.849781,-2619.780912,-14627.965048,-1176.864049,1366.898580,-1042.753582,-11178.040347,-3706.478024,-3783.949171,964.455422,14418.730368,-482.954142,-5043.671136,0.004000,-0.015187,1.006937,192.000000,0.000000,16.000000,127.500000,72.000000,15.500000,56.000000,0.000000,0.000000,0.000000,1770025104.499316,0.000000
234.000000,19059.958346,-4445.493751,-1723.766532,-1884.877906,-2644.747811,-14645.824092,-1204.379046,1343.138676,-1040.294890,-11175.425193,-3713.451769,-3783.613894,967.450555,14421.636095,-487.715064,-5040.877168,0.004000,-0.015187,1.006937,192.000000,0.000000,0.000000,0.000000,0.000000,0.000000,0.000000,0.000000,0.000000,0.000000,1770025104.499334,0.000000
236.000000,19087.138067,-4425.310126,-1700.341904,-1860.156877,-2616.338744,-14618.912592,-1181.289694,1365.401014,-1050.576693,-11185.975216,-3729.969708,-3796.890831,961.236770,14412.404825,-497.952163,-5046.509808,0.004000,-0.015187,1.006937,192.000000,0.000000,0.000000,0.000000,0.000000,0.000000,0.000000,0.000000,0.000000,0.000000,1770025104.499353,0.000000
238.000000,19074.330518,-4428.260556,-1706.734503,-1865.767165,-2621.479645,-14622.108891,-1187.101148,1357.354386,-1019.038381,-11159.734268,-3682.584009,-3769.487592,989.377617,14441.372686,-469.721910,-5015.887918,0.004000,-0.015187,1.006937,192.000000,0.000000,0.000000,0.000000,0.000000,0.000000,0.000000,0.000000,0.000000,0.000000,1770025104.499371,0.000000
240.000000,19066.887387,-4443.258577,-1719.162073,-1879.491136,-2638.601081,-14639.632659,-1197.651171,1348.950130,-1053.728289,-11185.930513,-3734.395353,-3798.231935,957.548732,14408.493270,-495.158195,-5047.046250,0.004000,-0.015187,1.006937,192.000000,0.000000,0.000000,0.000000,0.000000,0.000000,0.000000,0.000000,0.000000,0.000000,1770025104.499403,0.000000
242.000000,19084.053526,-4421.912661,-1702.800596,-1864.068432,-2625.927642,-14631.697790,-1174.964151,1367.502078,-1035.109286,-11172.139486,-3696.933829,-3777.891848,966.690596,14421.457281,-478.841421,-5036.540930,0.003000,-0.015594,1.008469,192.000000,0.000000,8.000000,127.500000,64.000000,15.500000,72.000000,0.000000,0.000000,0.000000,1770025104.499422,0.000000
244.000000,19056.180901,-4455.775554,-1729.130951,-1894.511508,-2657.018919,-14661.582072,-1205.094302,1335.315566,-1046.911007,-11182.711861,-3715.239908,-3792.353426,953.972453,14408.493270,-488.251506,-5045.816904,0.003000,-0.015594,1.008469,192.000000,0.000000,0.000000,0.000000,0.000000,0.000000,0.000000,0.000000,0.000000,0.000000,1770025104.499440,0.000000
246.000000,19070.597776,-4439.972870,-1710.109617,-1872.517392,-2637.148218,-14641.532557,-1181.535564,1355.856819,-1066.893466,-11196.301722,-3739.402144,-3806.636191,941.969567,14395.104575,-501.170814,-5057.685680,0.003000,-0.015594,1.008469,192.000000,0.000000,0.000000,0.000000,0.000000,0.000000,0.000000,0.000000,0.000000,0.000000,1770025104.499459,0.000000
248.000000,19066.574462,-4445.605510,-1714.848186,-1878.328845,-2640.970366,-14648.595708,-1189.604543,1348.994833,-1038.372640,-11174.665233,-3695.950353,-3781.289313,973.239657,14423.513642,-476.539192,-5032.651726,0.003000,-0.015594,1.008469,192.000000,0.000000,0.000000,0.000000,0.000000,0.000000,0.000000,0.000000,0.000000,0.000000,1770025104.499477,0.000000
250.000000,19057.164378,-4459.016557,-1721.218434,-1892.924534,-2656.504829,-14666.678270,-1199.104035,1339.338880,-1063.071318,-11200.146222,-3744.230121,-3808.960773,944.964700,14392.154144,-499.874413,-5066.134640,0.003000,-0.015594,1.008469,192.000000,0.000000,0.000000,0.000000,0.000000,0.000000,0.000000,0.000000,0.000000,0.000000,1770025104.499501,0.000000
252.000000,19079.806695,-4432.529739,-1699.313724,-1872.629150,-2634.555415,-14648.685115,-1173.086604,1363.076432,-1042.105382,-11186.891638,-3702.097082,-3790.520583,963.516648,14408.672083,-483.200012,-5052.187151,0.003500,-0.016797,1.007234,192.000000,0.000000,16.000000,127.500000,56.000000,15.500000,56.000000,0.000000,0.000000,0.000000,1770025104.499519,0.000000
254.000000,19062.215872,-4456.714327,-1720.100846,-1892.835127,-2651.341576,-14661.045630,-1194.544279,1342.602234,-1043.513542,-11191.093766,-3712.155367,-3796.287334,962.041433,14404.961694,-488.363265,-5054.489381,0.003500,-0.016797,1.007234,192.000000,0.000000,0.000000,0.000000,0.000000,0.000000,0.000000,0.000000,0.000000,0.000000,1770025104.499538,0.000000
0.000000,19076.230416,-4437.424771,-1705.303991,-1872.696206,-2627.581671,-14639.967935,-1176.327607,1361.444755,-1054.667062,-11195.027673,-3730.595557,-3803.037560,956.297035,14398.949075,-496.566355,-5060.725517,0.003500,-0.016797,1.007234,192.000000,0.000000,0.000000,0.000000,0.000000,0.000000,0.000000,0.000000,0.000000,0.000000,1770025104.499556,0.000000
2.000000,19079.426715,-4439.995222,-1708.701457,-1873.344406,-2629.369811,-14643.119531,-1185.044788,1356.169743,-1026.593271,-11170.999547,-3687.568448,-3777.265999,980.928657,14426.709941,-472.784099,-5037.859683,0.003500,-0.016797,1.007234,192.000000,0.000000,0.000000,0.000000,0.000000,0.000000,0.000000,0.000000,0.000000,0.000000,1770025104.499575,0.000000
4.000000,19065.278061,-4457.541341,-1718.916204,-1885.883735,-2641.797381,-14657.245834,-1198.679352,1343.988042,-1053.281254,-11194.178306,-3739.111571,-3807.642020,956.453497,14398.144412,-493.973552,-5063.251264,0.003500,-0.016797,1.007234,192.000000,0.000000,0.000000,0.000000,0.000000,0.000000,0.000000,0.000000,0.000000,0.000000,1770025104.499593,0.000000
6.000000,19083.338271,-4428.014687,-1695.424520,-1860.067470,-2615.802302,-14627.160386,-1173.757157,1367.926761,-1032.427076,-11177.906236,-3698.207879,-3785.692607,975.430128,14418.283334,-472.806450,-5040.206616,0.003500,-0.016797,1.007234,192.000000,0.000000,0.000000,0.000000,0.000000,0.000000,0.000000,0.000000,0.000000,0.000000,1770025104.499611,0.000000
8.000000,19066.283890,-4448.511237,-1717.955079,-1883.223877,-2640.322166,-14642.426627,-1198.791110,1345.507961,-1039.289062,-11177.705071,-3709.540213,-3787.972485,975.027797,14417.389264,-480.875430,-5036.764447,0.002000,-0.010000,1.010000,192.000000,0.000000,8.000000,127.500000,88.000000,15.500000,72.000000,0.000000,0.000000,0.000000,1770025104.499631,0.000000
10.000000,19076.386878,-4435.994260,-1704.655791,-1864.627226,-2618.931546,-14618.867888,-1181.468508,1359.343691,-1050.509638,-11186.489306,-3726.505187,-3798.768377,956.006462,14405.587543,-493.928849,-5042.151218,0.002000,-0.010000,1.010000,192.000000,0.000000,0.000000,0.000000,0.000000,0.000000,0.000000,0.000000,0.000000,0.000000,1770025104.499649,0.000000
12.000000,19072.207102,-4438.609414,-1710.511948,-1869.365796,-2626.017049,-14629.350856,-1187.861107,1349.397165,-1026.481512,-11169.747850,-3689.133071,-3776.774261,983.253239,14431.247345,-470.906552,-5013.295116,0.002000,-0.010000,1.010000,192.000000,0.000000,0.000000,0.000000,0.000000,0.000000,0.000000,0.000000,0.000000,0.000000,1770025104.499668,0.000000
14.000000,19057.343192,-4464.336272,-1719.363239,-1883.983837,-2641.618567,-14649.735647,-1199.595773,1335.606138,-1056.857533,-11197.151088,-3743.872493,-3809.228994,956.721718,14399.239647,-492.632448,-5045.571035,0.002000,-0.010000,1.010000,192.000000,0.000000,0.000000,0.000000,0.000000,0.000000,0.000000,0.000000,0.000000,0.000000,1770025104.499686,0.000000
16.000000,19073.458800,-4443.213873,-1703.046465,-1868.561133,-2626.508787,-14644.259470,-1179.076872,1353.711051,-1044.407611,-11188.009225,-3710.367228,-3798.231935,970.177468,14408.336807,-478.886125,-5040.161912,0.002000,-0.010000,1.010000,192.000000,0.000000,0.000000,0.000000,0.000000,0.000000,0.000000,0.000000,0.000000,0.000000,1770025104.499704,0.000000
18.000000,19066.462704,-4457.228417,-1719.653811,-1888.923572,-2646.021860,-14667.371174,-1198.858166,1337.438981,-1042.418306,-11185.550533,-3715.843405,-3797.673142,969.685730,14406.928647,-485.815166,-5050.443715,-0.004000,-0.014000,1.000000,192.000000,127.500000,112.000000,127.500000,72.000000,15.500000,32.000000,0.000000,0.000000,0.000000,1770025104.499722,0.000000
20.000000,19074.531683,-4438.698821,-1704.991067,-1870.505735,-2627.715782,-14652.574319,-1180.552087,1357.130868,-1055.874056,-11197.486365,-3731.489626,-3811.978258,951.022023,14391.550647,-501.483739,-5068.548628,-0.004000,-0.014000,1.000000,192.000000,0.000000,0.000000,0.000000,0.000000,0.000000,0.000000,0.000000,0.000000,0.000000,1770025104.499740,0.000000
22.000000,19079.829047,-4441.671603,-1703.627611,-1872.785613,-2625.681773,-14653.557796,-1183.569572,1356.683833,-1023.039344,-11173.927626,-3680.438242,-3777.824793,985.354303,14422.261944,-472.828802,-5042.933529,-0.004000,-0.014000,1.000000,192.000000,0.000000,0.000000,0.000000,0.000000,0.000000,0.000000,0.000000,0.000000,0.000000,1770025104.499758,0.000000
24.000000,19063.333459,-4455.507333,-1714.848186,-1888.521241,-2638.556378,-14664.756020,-1196.243012,1340.992909,-1054.085917,-11199.475670,-3732.853083,-3804.557479,955.067689,14389.203714,-490.173756,-5068.258055,-0.004000,-0.014000,1.000000,192.000000,0.000000,0.000000,0.000000,0.000000,0.000000,0.000000,0.000000,0.000000,0.000000,1770025104.499776,0.000000
26.000000,19077.929148,-4442.185693,-1700.654829,-1869.566961,-2618.171587,-14643.432455,-1177.847526,1351.140601,-1040.965443,-11185.483478,-3706.008638,-3792.599296,973.373768,14405.744005,-468.045529,-5044.118171,-0.004000,-0.014000,1.000000,192.000000,0.000000,0.000000,0.000000,0.000000,0.000000,0.000000,0.000000,0.000000,0.000000,1770025104.499858,0.000000
28.000000,19050.391799,-4472.941693,-1730.337945,-1893.438625,-2650.693375,-14666.678270,-1206.904794,1320.205786,-1053.929455,-11195.653521,-3729.925004,-3808.625496,963.226076,14396.758604,-478.975532,-5047.403878,-0.006000,-0.012000,1.002000,192.000000,127.500000,104.000000,127.500000,80.000000,15.500000,40.000000,0.000000,0.000000,0.000000,1770025104.499878,0.000000
30.000000,19068.116733,-4451.014632,-1711.987163,-1866.951807,-2632.096724,-14642.404275,-1183.524869,1345.038574,-1066.871115,-11203.141356,-3745.727688,-3815.755703,948.429221,14389.673101,-496.208727,-5054.355270,-0.006000,-0.012000,1.002000,192.000000,0.000000,0.000000,0.000000,0.000000,0.000000,0.000000,0.000000,0.000000,0.000000,1770025104.499896,0.000000
32.000000,19075.515160,-4446.968966,-1709.729637,-1863.822563,-2628.319279,-14628.322676,-1186.810575,1346.714955,-1033.097629,-11175.492248,-3698.252582,-3782.652769,975.474832,14421.613743,-477.388558,-5023.733380,-0.006000,-0.012000,1.002000,192.000000,0.000000,0.000000,0.000000,0.000000,0.000000,0.000000,0.000000,0.000000,0.000000,1770025104.499914,0.000000
34.000000,19068.988451,-4454.926187,-1716.301050,-1874.618456,-2632.588462,-14627.853290,-1199.506366,1337.774257,-1051.806039,-11193.217181,-3740.452676,-3805.362142,957.213456,14401.363063,-495.784044,-5039.647822,-0.006000,-0.012000,1.002000,192.000000,0.000000,0.000000,0.000000,0.000000,0.000000,0.000000,0.000000,0.000000,0.000000,1770025104.499932,0.000000
36.000000,19077.459762,-4442.900949,-1702.912355,-1860.134525,-2612.024857,-14612.452938,-1180.686197,1349.508923,-1038.640861,-11175.916931,-3707.349742,-3789.648865,972.658512,14421.591392,-476.382730,-5019.039514,-0.006000,-0.012000,1.002000,192.000000,0.000000,0.000000,0.000000,0.000000,0.000000,0.000000,0.000000,0.000000,0.000000,1770025104.499950,0.000000
38.000000,19051.643497,-4469.588932,-1727.543977,-1888.409482,-2648.100573,-14653.647203,-1205.273116,1323.603251,-1050.353175,-11187.651597,-3725.655821,-3802.992857,968.076404,14406.906296,-485.144613,-5036.317412,-0.004000,-0.012000,1.010000,192.000000,127.500000,112.000000,127.500000,80.000000,15.500000,72.000000,0.000000,0.000000,0.000000,1770025104.499968,0.000000
40.000000,19067.557939,-4453.719193,-1711.651887,-1870.617493,-2630.621508,-14651.344973,-1183.144889,1342.713993,-1069.620379,-11206.069434,-3748.365193,-3822.170654,944.808238,14382.475839,-500.455558,-5061.820753,-0.004000,-0.012000,1.010000,192.000000,0.000000,0.000000,0.000000,0.000000,0.000000,0.000000,0.000000,0.000000,0.000000,1770025104.499987,0.000000
42.000000,19075.738677,-4447.728926,-1706.689800,-1867.041214,-2627.112285,-14650.294441,-1184.731863,1350.604159,-1037.903254,-11178.777954,-3698.476100,-3786.698435,981.465099,14413.902392,-472.851154,-5044.296985,-0.004000,-0.012000,1.010000,192.000000,0.000000,0.000000,0.000000,0.000000,0.000000,0.000000,0.000000,0.000000,0.000000,1770025104.500005,0.000000
44.000000,19063.400515,-4454.099173,-1719.296184,-1878.574714,-2641.529160,-14663.012584,-1199.729884,1342.043441,-1061.171420,-11193.284237,-3741.838484,-3802.903450,951.267892,14392.891752,-495.672285,-5070.113250,-0.004000,-0.012000,1.010000,192.000000,0.000000,0.000000,0.000000,0.000000,0.000000,0.000000,0.000000,0.000000,0.000000,1770025104.500024,0.000000
46.000000,19085.662852,-4429.176978,-1697.614991,-1856.155915,-2614.595308,-14643.275993,-1173.533639,1364.037557,-1040.540760,-11172.318300,-3702.678228,-3780.730519,971.026834,14412.002493,-477.835593,-5051.941282,-0.004000,-0.012000,1.010000,192.000000,0.000000,0.000000,0.000000,0.000000,0.000000,0.000000,0.000000,0.000000,0.000000,1770025104.500043,0.000000
48.000000,19058.617241,-4464.000996,-1721.061971,-1884.654389,-2638.154046,-14666.946491,-1201.406264,1332.946281,-1045.324033,-11179.917893,-3715.463426,-3790.699397,968.456384,14402.011264,-478.036759,-5051.583654,-0.004000,-0.014000,1.012000,192.000000,127.500000,112.000000,127.500000,72.000000,15.500000,80.000000,0.000000,0.000000,0.000000,1770025104.500062,0.000000
50.000000,19061.567671,-4459.150667,-1710.668410,-1874.417290,-2627.559319,-14652.663726,-1185.245953,1341.283481,-1069.665083,-11202.671969,-3746.018260,-3815.018095,946.842247,14379.681871,-490.419625,-5060.189075,-0.004000,-0.014000,1.012000,192.000000,0.000000,0.000000,0.000000,0.000000,0.000000,0.000000,0.000000,0.000000,0.000000,1770025104.500080,0.000000
52.000000,19054.526872,-4463.621016,-1718.871500,-1881.502793,-2633.348421,-14657.536406,-1193.717264,1334.309737,-1052.007205,-11189.104460,-3707.930888,-3797.203755,973.038491,14399.664330,-472.784099,-5038.217311,-0.004000,-0.014000,1.012000,192.000000,0.000000,0.000000,0.000000,0.000000,0.000000,0.000000,0.000000,0.000000,0.000000,1770025104.500099,0.000000
54.000000,19048.581308,-4471.310016,-1726.225224,-1890.756415,-2645.999509,-14668.399354,-1206.658924,1326.240757,-1076.862344,-11211.880888,-3757.730574,-3822.125950,941.477828,14370.070621,-496.476948,-5064.748831,-0.004000,-0.014000,1.012000,192.000000,0.000000,0.000000,0.000000,0.000000,0.000000,0.000000,0.000000,0.000000,0.000000,1770025104.500117,0.000000
56.000000,19079.694936,-4439.749353,-1702.800596,-1860.447450,-2609.320296,-14635.318772,-1181.177936,1355.543894,-1047.670966,-11187.495135,-3712.937678,-3795.393264,966.690596,14398.189115,-476.270971,-5044.229930,-0.004000,-0.014000,1.012000,192.000000,0.000000,0.000000,0.000000,0.000000,0.000000,0.000000,0.000000,0.000000,0.000000,1770025104.500135,0.000000
58.000000,19074.084648,-4448.444181,-1718.066838,-1876.630113,-2628.654555,-14645.466464,-1202.054465,1339.405935,-1033.030573,-11172.094783,-3710.568394,-3782.161031,977.933523,14412.784804,-472.493526,-5035.780971,-0.004000,-0.014000,1.008000,192.000000,127.500000,112.000000,127.500000,72.000000,15.500000,64.000000,0.000000,0.000000,0.000000,1770025104.979330,0.000000
60.000000,19079.627881,-4447.460705,-1703.024114,-1862.570865,-2616.025819,-14630.870775,-1179.836831,1351.542932,-1050.330824,-11189.707957,-3732.897786,-3802.970505,960.163887,14396.557438,-489.056169,-5047.336822,-0.004000,-0.014000,1.008000,192.000000,0.000000,0.000000,0.000000,0.000000,0.000000,0.000000,0.000000,0.000000,0.000000,1770025104.979396,0.000000
62.000000,19073.928186,-4451.551074,-1708.075608,-1866.236552,-2623.960689,-14633.083598,-1184.284828,1345.820885,-1031.533007,-11172.430059,-3694.877469,-3784.575019,992.350399,14420.227935,-474.236962,-5021.498206,-0.004000,-0.014000,1.008000,192.000000,0.000000,0.000000,0.000000,0.000000,0.000000,0.000000,0.000000,0.000000,0.000000,1770025104.979445,0.000000
64.000000,19062.998183,-4463.799830,-1721.307841,-1878.909991,-2633.393125,-14640.169101,-1200.579250,1331.336955,-1062.043138,-11196.771109,-3748.544007,-3812.581755,957.816953,14390.343653,-500.187337,-5049.013203,-0.004000,-0.014000,1.008000,192.000000,0.000000,0.000000,0.000000,0.000000,0.000000,0.000000,0.000000,0.000000,0.000000,1770025104.979481,0.000000
66.000000,19085.394631,-4430.942766,-1697.011494,-1853.093726,-2600.089026,-14614.531650,-1180.261514,1356.616778,-1040.004318,-11177.638015,-3712.110664,-3789.827679,977.598247,14412.829508,-475.890991,-5030.751828,-0.004000,-0.014000,1.008000,192.000000,0.000000,0.000000,0.000000,0.000000,0.000000,0.000000,0.000000,0.000000,0.000000,1770025104.979536,0.000000
68.000000,19073.324689,-4451.171094,-1711.093093,-1872.472688,-2620.026782,-14640.504377,-1203.239108,1337.595443,-1035.243396,-11172.385356,-3711.708333,-3787.212525,981.979189,14415.265848,-469.297227,-5034.685735,0.004000,-0.010000,1.004000,192.000000,0.000000,16.000000,127.500000,88.000000,15.500000,48.000000,0.000000,0.000000,0.000000,1770025104.979591,0.000000
70.000000,19078.242073,-4445.583158,-1700.252497,-1860.603912,-2609.767331,-14641.912537,-1180.149755,1348.011356,-1051.806039,-11187.718652,-3732.093123,-3804.713941,966.958817,14394.322264,-476.270971,-5053.282386,0.004000,-0.010000,1.004000,192.000000,0.000000,0.000000,0.000000,0.000000,0.000000,0.000000,0.000000,0.000000,0.000000,1770025104.979646,0.000000
72.000000,19070.843645,-4455.194408,-1710.601355,-1870.237514,-2624.072447,-14657.961089,-1184.776567,1339.361231,-1041.144257,-11175.224027,-3701.448882,-3792.062854,979.475794,14408.605028,-461.742337,-5038.239662,0.004000,-0.010000,1.004000,192.000000,0.000000,0.000000,0.000000,0.000000,0.000000,0.000000,0.000000,0.000000,0.000000,1770025104.979665,0.000000
74.000000,19065.769799,-4459.284778,-1718.625631,-1880.966351,-2634.778933,-14667.527636,-1198.433482,1332.365135,-1069.933304,-11199.922705,-3753.193170,-3812.671162,951.625520,14377.603159,-492.207765,-5067.498096,0.004000,-0.010000,1.004000,192.000000,0.000000,0.000000,0.000000,0.000000,0.000000,0.000000,0.000000,0.000000,0.000000,1770025104.979682,0.000000
76.000000,19081.617186,-4437.849455,-1699.447834,-1859.285159,-2613.634183,-14643.879490,-1176.729939,1354.359252,-1041.412478,-11179.649672,-3710.099007,-3787.525450,977.531192,14402.145374,-478.439090,-5047.940320,0.004000,-0.010000,1.004000,192.000000,0.000000,0.000000,0.000000,0.000000,0.000000,0.000000,0.000000,0.000000,0.000000,1770025104.979700,0.000000
78.000000,19069.346079,-4461.117621,-1722.067800,-1884.229706,-2642.758506,-14667.058249,-1201.808596,1331.694583,-1043.379431,-11180.208466,-3715.552833,-3790.855860,966.467079,14404.022921,-480.629561,-5048.946148,0.003000,-0.013000,1.002000,192.000000,0.000000,8.000000,127.500000,64.000000,15.500000,32.000000,0.000000,0.000000,0.000000,1770025104.979718,0.000000
80.000000,19068.362602,-4456.714327,-1710.668410,-1872.137412,-2632.834331,-14657.402296,-1184.642456,1346.245569,-1070.313283,-11203.633094,-3742.799609,-3813.788749,950.887913,14379.614816,-499.650896,-5066.425212,0.003000,-0.013000,1.002000,192.000000,0.000000,0.000000,0.000000,0.000000,0.000000,0.000000,0.000000,0.000000,0.000000,1770025104.979736,0.000000
82.000000,19072.385916,-4457.094307,-1708.679105,-1870.930418,-2622.798398,-14648.461598,-1186.385892,1342.736345,-1040.540760,-11183.091841,-3697.783196,-3789.782976,970.132765,14404.894639,-474.952218,-5038.865511,0.003000,-0.013000,1.002000,192.000000,0.000000,0.000000,0.000000,0.000000,0.000000,0.000000,0.000000,0.000000,0.000000,1770025104.979753,0.000000
84.000000,19064.294584,-4457.541341,-1718.402114,-1879.267619,-2629.749790,-14651.792008,-1200.914526,1330.308775,-1061.372585,-11196.167612,-3749.236911,-3811.240651,956.587607,14385.538028,-494.420587,-5059.697337,0.003000,-0.013000,1.002000,192.000000,0.000000,0.000000,0.000000,0.000000,0.000000,0.000000,0.000000,0.000000,0.000000,1770025104.979770,0.000000
86.000000,19092.681300,-4432.730905,-1693.345808,-1851.238531,-2605.296982,-14621.371284,-1177.176973,1358.315511,-1036.271576,-11172.631225,-3708.668495,-3786.966656,978.179393,14411.264886,-477.880296,-5039.603119,0.003000,-0.013000,1.002000,192.000000,0.000000,0.000000,0.000000,0.000000,0.000000,0.000000,0.000000,0.000000,0.000000,1770025104.979786,0.000000
88.000000,19066.552110,-4458.413060,-1715.228166,-1877.568886,-2633.884863,-14648.506301,-1203.864956,1339.830618,-1038.171475,-11175.425193,-3709.651972,-3786.318455,972.636160,14411.913086,-476.740357,-5036.116247,0.002500,-0.015500,1.003000,192.000000,0.000000,8.000000,127.500000,56.000000,15.500000,48.000000,0.000000,0.000000,0.000000,1770025104.979803,0.000000
90.000000,19086.758087,-4442.118638,-1701.235974,-1860.581560,-2612.002505,-14636.592822,-1183.234296,1360.215409,-1055.583484,-11194.044196,-3730.416743,-3803.059912,957.235808,14390.500115,-493.124186,-5055.204636,0.002500,-0.015500,1.003000,192.000000,0.000000,0.000000,0.000000,0.000000,0.000000,0.000000,0.000000,0.000000,0.000000,1770025104.979826,0.000000
92.000000,19070.463666,-4446.343118,-1708.634401,-1867.600008,-2613.611831,-14647.813397,-1186.117671,1347.027880,-1029.834274,-11173.100611,-3691.904687,-3778.517697,991.746901,14411.823679,-469.297227,-5035.892729,0.002500,-0.015500,1.003000,192.000000,0.000000,0.000000,0.000000,0.000000,0.000000,0.000000,0.000000,0.000000,0.000000,1770025104.979840,0.000000
94.000000,19057.030267,-4464.380975,-1718.893852,-1876.540706,-2629.190997,-14659.682174,-1199.282849,1333.169798,-1067.519315,-11200.995588,-3750.913292,-3810.525395,957.615788,14380.352423,-490.576087,-5065.017052,0.002500,-0.015500,1.003000,192.000000,0.000000,0.000000,0.000000,0.000000,0.000000,0.000000,0.000000,0.000000,0.000000,1770025104.979858,0.000000
96.000000,19089.574407,-4433.982603,-1690.864765,-1848.265749,-2604.089988,-14626.512185,-1174.450061,1363.232894,-1040.630167,-11176.632187,-3706.656838,-3786.385511,973.530230,14408.046235,-475.466308,-5043.581729,0.002500,-0.015500,1.003000,192.000000,0.000000,0.000000,0.000000,0.000000,0.000000,0.000000,0.000000,0.000000,0.000000,1770025104.979874,0.000000
98.000000,19074.285814,-4451.863998,-1708.276773,-1871.355101,-2628.609851,-14643.723028,-1197.651171,1346.066755,-1035.779838,-11170.843085,-3706.366266,-3783.211563,974.647817,14414.729406,-481.993017,-5042.911177,0.004250,-0.016750,1.004500,192.000000,0.000000,24.000000,127.500000,56.000000,15.500000,56.000000,0.000000,0.000000,0.000000,1770025104.979892,0.000000
100.000000,19098.783326,-4419.096341,-1692.541145,-1853.250188,-2608.470930,-14628.523842,-1179.345093,1367.636188,-1044.966405,-11173.145315,-3725.879338,-3787.458394,968.456384,14404.022921,-491.783082,-5054.243511,0.004250,-0.016750,1.004500,192.000000,0.000000,0.000000,0.000000,0.000000,0.000000,0.000000,0.000000,0.000000,0.000000,1770025104.979909,0.000000
102.000000,19081.125448,-4439.190559,-1704.029942,-1866.795345,-2620.049133,-14647.120493,-1184.307180,1353.778106,-1020.088913,-11155.867416,-3686.674379,-3766.268941,990.718721,14423.133662,-471.085366,-5032.741133,0.004250,-0.016750,1.004500,192.000000,0.000000,0.000000,0.000000,0.000000,0.000000,0.000000,0.000000,0.000000,0.000000,1770025104.979930,0.000000
104.000000,19060.897119,-4462.391670,-1717.172768,-1886.576639,-2638.243453,-14667.482933,-1197.181785,1335.874359,-1063.406594,-11197.933399,-3746.197074,-3810.771264,955.581779,14376.083240,-501.886070,-5064.815887,0.004250,-0.016750,1.004500,192.000000,0.000000,0.000000,0.000000,0.000000,0.000000,0.000000,0.000000,0.000000,0.000000,1770025104.979946,0.000000
106.000000,19076.632747,-4449.092382,-1700.230145,-1864.135488,-2614.930584,-14644.281822,-1179.166279,1353.040499,-1043.781763,-11184.254132,-3706.969763,-3792.331075,967.048224,14393.629359,-482.752977,-5044.095819,0.004250,-0.016750,1.004500,192.000000,0.000000,0.000000,0.000000,0.000000,0.000000,0.000000,0.000000,0.000000,0.000000,1770025104.979965,0.000000
108.000000,19054.616279,-4473.276970,-1727.543977,-1890.219973,-2640.679793,-14666.007717,-1212.738599,1318.685868,-1051.470763,-11191.116117,-3724.247661,-3800.869441,965.349491,14389.404880,-482.998846,-5046.398049,0.003125,-0.015375,1.007250,192.000000,0.000000,8.000000,127.500000,72.000000,15.500000,72.000000,0.000000,0.000000,0.000000,1770025104.979981,0.000000
110.000000,19060.025401,-4455.484981,-1714.065875,-1869.030520,-2618.529215,-14640.124397,-1195.728921,1335.293214,-1072.101423,-11206.181193,-3756.635339,-3819.443741,943.154209,14373.333975,-494.197070,-5061.776049,0.003125,-0.015375,1.007250,192.000000,0.000000,0.000000,0.000000,0.000000,0.000000,0.000000,0.000000,0.000000,0.000000,1770025104.979999,0.000000
112.000000,19067.401477,-4456.446106,-1711.450721,-1869.969293,-2617.590441,-14638.537423,-1191.347979,1338.824789,-1038.976138,-11178.174457,-3706.187452,-3787.816022,978.313503,14408.850897,-467.978474,-5035.266880,0.003125,-0.015375,1.007250,192.000000,0.000000,0.000000,0.000000,0.000000,0.000000,0.000000,0.000000,0.000000,0.000000,1770025104.980017,0.000000
114.000000,19066.663869,-4454.188580,-1712.590660,-1879.200563,-2627.715782,-14652.171988,-1194.141948,1339.227121,-1061.730213,-11199.453318,-3747.314661,-3811.307706,963.382538,14380.263016,-493.951201,-5065.039404,0.003125,-0.015375,1.007250,192.000000,0.000000,0.000000,0.000000,0.000000,0.000000,0.000000,0.000000,0.000000,0.000000,1770025104.980034,0.000000
116.000000,19077.504465,-4441.738658,-1695.782148,-1861.945017,-2609.297944,-14638.470368,-1176.059386,1353.778106,-1041.747754,-11179.135582,-3708.377923,-3788.441871,974.781927,14400.021958,-473.588762,-5048.432058,0.003125,-0.015375,1.007250,192.000000,0.000000,0.000000,0.000000,0.000000,0.000000,0.000000,0.000000,0.000000,0.000000,1770025104.980051,0.000000
118.000000,19042.278116,-4478.931961,-1724.012402,-1889.571773,-2641.909139,-14668.175837,-1206.770683,1316.875376,-1056.365795,-11188.903295,-3728.807417,-3799.796557,960.454459,14394.501077,-475.913343,-5049.214369,0.002563,-0.015688,1.008625,192.000000,0.000000,8.000000,127.500000,64.000000,15.500000,72.000000,0.000000,0.000000,0.000000,1770025104.980068,0.000000
120.000000,19061.053581,-4462.078746,-1710.422541,-1873.545572,-2628.341630,-14658.385773,-1191.280924,1335.002641,-1078.941057,-11210.763301,-3759.876342,-3824.495235,937.812142,14368.461295,-496.432244,-5067.028709,0.002563,-0.015688,1.008625,192.000000,0.000000,0.000000,0.000000,0.000000,0.000000,0.000000,0.000000,0.000000,0.000000,1770025104.980086,0.000000
122.000000,19072.922358,-4454.903836,-1709.796692,-1873.143241,-2630.062715,-14663.504322,-1189.448081,1346.446734,-1044.742888,-11182.354234,-3705.718065,-3794.208621,972.613808,14398.300874,-472.024139,-5042.218273,0.002563,-0.015688,1.008625,192.000000,0.000000,0.000000,0.000000,0.000000,0.000000,0.000000,0.000000,0.000000,0.000000,1770025104.980105,0.000000
124.000000,19059.667773,-4453.652138,-1715.049352,-1877.814755,-2644.993680,-14673.115572,-1191.325628,1348.078412,-1066.535838,-11201.822603,-3743.626624,-3805.406845,953.726584,14369.623586,-500.075579,-5075.008282,0.002563,-0.015688,1.008625,192.000000,0.000000,0.000000,0.000000,0.000000,0.000000,0.000000,0.000000,0.000000,0.000000,1770025104.980123,0.000000
126.000000,19085.126410,-4434.072010,-1691.915297,-1850.478572,-2614.572956,-14643.186586,-1165.777584,1370.117232,-1042.217140,-11177.034518,-3700.934792,-3775.991950,967.718776,14396.691548,-481.233058,-5052.433020,0.002563,-0.015688,1.008625,192.000000,0.000000,0.000000,0.000000,0.000000,0.000000,0.000000,0.000000,0.000000,0.000000,1770025104.980158,0.000000
128.000000,19063.176997,-4454.680318,-1714.579965,-1875.780746,-2632.364945,-14659.078677,-1199.662828,1338.623624,-1043.222969,-11176.542780,-3714.479949,-3783.524487,973.396119,14400.312531,-479.087291,-5050.913102,0.002281,-0.013844,1.007312,192.000000,0.000000,8.000000,127.500000,80.000000,15.500000,56.000000,0.000000,0.000000,0.000000,1770025104.980175,0.000000
130.000000,19068.943747,-4449.718231,-1705.013419,-1871.109232,-2616.964593,-14650.540310,-1188.554011,1342.311662,-1060.702033,-11192.300760,-3746.644109,-3805.049217,960.387404,14379.458353,-488.430320,-5064.368852,0.002281,-0.013844,1.007312,192.000000,0.000000,0.000000,0.000000,0.000000,0.000000,0.000000,0.000000,0.000000,0.000000,1770025104.980193,0.000000
132.000000,19062.618203,-4469.588932,-1707.338000,-1882.642732,-2619.088008,-14650.495607,-1194.320761,1330.420533,-1044.497018,-11185.192905,-3711.730684,-3793.292200,980.526326,14392.467069,-463.664587,-5037.323241,0.002281,-0.013844,1.007312,192.000000,0.000000,0.000000,0.000000,0.000000,0.000000,0.000000,0.000000,0.000000,0.000000,1770025104.980211,0.000000
134.000000,19041.384046,-4484.497545,-1724.079457,-1903.362799,-2640.813904,-14669.382831,-1211.844529,1312.762655,-1078.717539,-11218.832280,-3765.508981,-3832.385401,952.608997,14357.844217,-491.403102,-5061.731346,0.002281,-0.013844,1.007312,192.000000,0.000000,0.000000,0.000000,0.000000,0.000000,0.000000,0.000000,0.000000,0.000000,1770025104.980228,0.000000
136.000000,19076.409230,-4447.036022,-1694.373988,-1868.695243,-2605.922831,-14638.738589,-1178.831003,1349.978310,-1054.622359,-11202.761376,-3720.291402,-3812.492348,964.991863,14376.530275,-481.143651,-5046.934491,0.002281,-0.013844,1.007312,192.000000,0.000000,0.000000,0.000000,0.000000,0.000000,0.000000,0.000000,0.000000,0.000000,1770025104.980246,0.000000
138.000000,19066.753276,-4459.128315,-1712.121274,-1880.988703,-2621.122017,-14656.798799,-1199.752235,1335.784952,-1039.266710,-11187.696300,-3712.401237,-3799.662447,980.325160,14391.416537,-476.136860,-5047.537988,0.000141,-0.012922,1.002656,192.000000,127.500000,120.000000,127.500000,80.000000,15.500000,24.000000,0.000000,0.000000,0.000000,1770025104.980264,0.000000
140.000000,19067.803808,-4455.708498,-1702.755893,-1863.911970,-2611.130787,-14648.103970,-1183.658979,1349.285406,-1059.405632,-11198.246324,-3738.798647,-3809.653677,961.862619,14379.815981,-489.704369,-5067.229875,0.000141,-0.012922,1.002656,192.000000,0.000000,0.000000,0.000000,0.000000,0.000000,0.000000,0.000000,0.000000,0.000000,1770025104.980280,0.000000
142.000000,19056.896157,-4461.452897,-1708.187367,-1868.382319,-2626.777008,-14656.910557,-1188.688122,1341.350537,-1044.988757,-11178.777954,-3702.722931,-3784.440909,979.006407,14403.285313,-472.471174,-5045.280462,0.000141,-0.012922,1.002656,192.000000,0.000000,0.000000,0.000000,0.000000,0.000000,0.000000,0.000000,0.000000,0.000000,1770025104.980298,0.000000
144.000000,19050.347096,-4468.136068,-1717.753913,-1884.073244,-2649.933416,-14676.378927,-1199.595773,1327.872435,-1079.276333,-11202.984894,-3754.601330,-3817.946174,941.813104,14370.025917,-502.042532,-5074.181268,0.000141,-0.012922,1.002656,192.000000,0.000000,0.000000,0.000000,0.000000,0.000000,0.000000,0.000000,0.000000,0.000000,1770025104.980315,0.000000
146.000000,19083.382974,-4440.039926,-1696.050369,-1859.911008,-2624.027744,-14653.602499,-1171.253761,1354.940397,-1055.337614,-11186.064623,-3713.004734,-3801.405883,962.466116,14387.572037,-488.072692,-5055.808134,0.000141,-0.012922,1.002656,192.000000,0.000000,0.000000,0.000000,0.000000,0.000000,0.000000,0.000000,0.000000,0.000000,1770025104.980333,0.000000
148.000000,19066.172131,-4451.528722,-1713.820006,-1879.759357,-2640.322166,-14667.415877,-1195.013666,1340.858798,-1048.207408,-11183.337710,-3713.027085,-3794.767415,968.858715,14390.366005,-490.732550,-5052.991814,0.000141,-0.012922,1.002656,192.000000,0.000000,0.000000,0.000000,0.000000,0.000000,0.000000,0.000000,0.000000,0.000000,1770025104.980350,0.000000
150.000000,19080.991337,-4436.485998,-1698.062026,-1863.241418,-2620.518520,-14644.058304,-1178.093395,1361.489458,-1060.098536,-11190.736138,-3733.769504,-3801.919973,951.737279,14380.263016,-499.986172,-5060.345538,-0.006000,-0.010000,1.002000,192.000000,127.500000,104.000000,127.500000,88.000000,15.500000,40.000000,0.000000,0.000000,0.000000,1770025104.980367,0.000000
152.000000,19080.365489,-4441.381030,-1696.810329,-1861.408575,-2621.122017,-14642.001944,-1179.993293,1361.936493,-1030.750696,-11166.708012,-3687.702559,-3770.135793,987.477718,14409.968485,-473.611113,-5031.534139,-0.006000,-0.010000,1.002000,192.000000,0.000000,0.000000,0.000000,0.000000,0.000000,0.000000,0.000000,0.000000,0.000000,1770025104.980381,0.000000
154.000000,19055.867977,-4469.432470,-1712.456550,-1875.356063,-2640.612738,-14656.821150,-1197.293543,1338.265996,-1063.048966,-11193.865382,-3739.223330,-3798.723674,957.727546,14378.966615,-494.420587,-5056.590445,-0.006000,-0.010000,1.002000,192.000000,0.000000,0.000000,0.000000,0.000000,0.000000,0.000000,0.000000,0.000000,0.000000,1770025104.980402,0.000000
156.000000,19066.641517,-4451.394612,-1696.497404,-1857.541723,-2613.053037,-14628.434435,-1177.825174,1349.039537,-1052.253074,-11187.450431,-3714.703466,-3794.901525,974.826631,14391.796516,-476.226267,-5039.290194,-0.006000,-0.010000,1.002000,192.000000,0.000000,0.000000,0.000000,0.000000,0.000000,0.000000,0.000000,0.000000,0.000000,1770025104.980420,0.000000
158.000000,19040.668790,-4479.200182,-1721.397247,-1886.263715,-2630.018011,-14646.092313,-1209.050561,1317.210652,-1061.216123,-11191.160821,-3731.131998,-3806.926764,971.205648,14392.265903,-473.275837,-5037.099723,-0.006000,-0.010000,1.002000,192.000000,0.000000,0.000000,0.000000,0.000000,0.000000,0.000000,0.000000,0.000000,0.000000,1770025104.980436,0.000000
160.000000,19064.763971,-4456.781382,-1705.572212,-1871.556267,-2607.420398,-14630.110816,-1193.940782,1333.639185,-1074.582466,-11201.800251,-3759.406955,-3821.321287,954.151267,14380.330071,-483.423529,-5048.633224,-0.004000,-0.012000,1.004000,192.000000,127.500000,112.000000,127.500000,80.000000,15.500000,48.000000,0.000000,0.000000,0.000000,1770025104.980454,0.000000
162.000000,19075.738677,-4450.969929,-1700.945401,-1868.449374,-2606.526328,-14637.375133,-1189.559840,1341.261130,-1040.563111,-11175.827524,-3709.026123,-3792.487537,986.985980,14406.660426,-463.329311,-5028.762523,-0.004000,-0.012000,1.004000,192.000000,0.000000,0.000000,0.000000,0.000000,0.000000,0.000000,0.000000,0.000000,0.000000,1770025104.980472,0.000000
164.000000,19062.551148,-4455.440278,-1711.830701,-1879.334674,-2623.692468,-14658.095200,-1198.947573,1335.315566,-1057.975120,-11192.054891,-3747.046440,-3807.642020,964.835401,14382.632301,-486.150442,-5060.770221,-0.004000,-0.012000,1.004000,192.000000,0.000000,0.000000,0.000000,0.000000,0.000000,0.000000,0.000000,0.000000,0.000000,1770025104.980489,0.000000
166.000000,19075.179884,-4437.268309,-1693.055236,-1857.027633,-2605.498148,-14643.723028,-1171.678444,1358.516676,-1046.508675,-11180.543742,-3714.167024,-3785.782014,977.307675,14393.294083,-476.449785,-5053.818828,-0.004000,-0.012000,1.004000,192.000000,0.000000,0.000000,0.000000,0.000000,0.000000,0.000000,0.000000,0.000000,0.000000,1770025104.980507,0.000000
168.000000,19052.135235,-4470.930036,-1718.156245,-1882.083938,-2645.351308,-14671.461543,-1195.214831,1331.404010,-1053.124792,-11183.561228,-3722.526577,-3788.955961,978.224096,14390.813040,-480.383692,-5057.640977,-0.004000,-0.012000,1.004000,192.000000,0.000000,0.000000,0.000000,0.000000,0.000000,0.000000,0.000000,0.000000,0.000000,1770025104.980524,0.000000
170.000000,19068.653174,-4456.691975,-1701.593602,-1862.995549,-2633.437828,-14655.055363,-1175.008854,1346.759659,-1073.956618,-11203.834260,-3747.828752,-3815.353372,942.550712,14372.261092,-505.104721,-5076.863477,-0.004000,-0.012000,1.000000,192.000000,127.500000,112.000000,127.500000,80.000000,15.500000,32.000000,0.000000,0.000000,0.000000,1770025104.980542,0.000000
172.000000,19067.110904,-4456.624920,-1703.068817,-1863.040252,-2630.219177,-14646.852272,-1182.094357,1343.809228,-1035.377507,-11173.413536,-3696.911478,-3783.904467,981.062768,14410.728444,-477.030930,-5040.027802,-0.004000,-0.012000,1.000000,192.000000,0.000000,0.000000,0.000000,0.000000,0.000000,0.000000,0.000000,0.000000,0.000000,1770025104.980560,0.000000
174.000000,19055.219776,-4468.940731,-1718.044486,-1872.763261,-2636.790590,-14650.048572,-1202.166224,1328.632394,-1067.318149,-11196.592295,-3752.433211,-3812.045313,951.111430,14386.767374,-501.796663,-5054.176456,-0.004000,-0.012000,1.000000,192.000000,0.000000,0.000000,0.000000,0.000000,0.000000,0.000000,0.000000,0.000000,0.000000,1770025104.980577,0.000000
176.000000,19077.370355,-4436.038963,-1696.653866,-1846.835237,-2607.666267,-14623.628810,-1179.255686,1355.745060,-1044.675832,-11175.045213,-3718.145635,-3786.206697,971.540924,14410.013188,-476.941523,-5024.292174,-0.004000,-0.012000,1.000000,192.000000,0.000000,0.000000,0.000000,0.000000,0.000000,0.000000,0.000000,0.000000,0.000000,1770025104.980594,0.000000
178.000000,19059.220738,-4464.582141,-1719.117370,-1874.327883,-2639.159875,-14648.707467,-1202.233279,1336.679022,-1049.459106,-11176.475725,-3723.130074,-3784.776185,973.932561,14410.147299,-478.953180,-5028.829578,-0.004000,-0.012000,1.000000,192.000000,0.000000,0.000000,0.000000,0.000000,0.000000,0.000000,0.000000,0.000000,0.000000,1770025105.460202,0.000000
180.000000,19075.112829,-4439.749353,-1700.833643,-1858.659310,-2622.038439,-14632.435397,-1180.015645,1357.980234,-1066.021748,-11188.411556,-3747.828752,-3796.980238,954.911227,14396.177458,-493.012427,-5050.980157,-0.002000,-0.010000,1.002000,192.000000,127.500000,120.000000,127.500000,88.000000,15.500000,40.000000,0.000000,0.000000,0.000000,1770025105.460276,0.000000
182.000000,19074.464628,-4437.760048,-1699.447834,-1860.536857,-2622.329011,-14637.777464,-1182.519040,1356.616778,-1036.472742,-11163.489361,-3700.286591,-3768.124136,983.610867,14421.792557,-471.375939,-5033.970479,-0.002000,-0.010000,1.002000,192.000000,0.000000,0.000000,0.000000,0.000000,0.000000,0.000000,0.000000,0.000000,0.000000,1770025105.460336,0.000000
184.000000,19064.227529,-4453.652138,-1713.641192,-1872.629150,-2642.199712,-14655.949432,-1197.718227,1340.545874,-1065.395899,-11183.896504,-3747.806400,-3790.945267,953.972453,14392.757641,-496.320486,-5064.368852,-0.002000,-0.010000,1.002000,192.000000,0.000000,0.000000,0.000000,0.000000,0.000000,0.000000,0.000000,0.000000,0.000000,1770025105.460391,0.000000
186.000000,19083.695898,-4434.742562,-1694.843375,-1849.830371,-2610.594345,-14634.938793,-1173.846564,1355.007452,-1044.921702,-11169.122001,-3715.485777,-3777.958903,979.095814,14410.102595,-479.489622,-5043.693488,-0.002000,-0.010000,1.002000,192.000000,0.000000,0.000000,0.000000,0.000000,0.000000,0.000000,0.000000,0.000000,0.000000,1770025105.460451,0.000000
188.000000,19052.448160,-4468.448993,-1719.519701,-1883.201526,-2635.561244,-14666.946491,-1200.221622,1321.122208,-1049.861437,-11181.683681,-3726.974574,-3793.873345,971.116241,14399.060833,-479.579029,-5046.755677,-0.002000,-0.010000,1.002000,192.000000,0.000000,0.000000,0.000000,0.000000,0.000000,0.000000,0.000000,0.000000,0.000000,1770025105.460506,0.000000
190.000000,19064.942785,-4457.988376,-1703.404093,-1867.912932,-2615.064694,-14654.094238,-1181.244991,1337.327223,-1076.549420,-11205.912972,-3760.546894,-3820.315459,951.044375,14373.915121,-495.024084,-5068.816849,-0.002000,-0.014000,1.010000,192.000000,127.500000,120.000000,127.500000,72.000000,15.500000,72.000000,0.000000,0.000000,0.000000,1770025105.460535,0.000000
192.000000,19071.313032,-4471.287664,-1702.219451,-1870.729252,-2621.591404,-14653.334278,-1186.743520,1337.729554,-1043.871170,-11182.041309,-3712.334181,-3788.799499,978.067634,14403.061796,-471.755918,-5041.301851,-0.002000,-0.014000,1.010000,192.000000,0.000000,0.000000,0.000000,0.000000,0.000000,0.000000,0.000000,0.000000,0.000000,1770025105.460554,0.000000
194.000000,19055.912680,-4466.884371,-1711.115445,-1879.826412,-2632.297889,-14658.475179,-1201.942706,1331.269900,-1071.430870,-11206.270600,-3756.858856,-3814.727523,949.300939,14374.697432,-495.247602,-5063.631244,-0.002000,-0.014000,1.010000,192.000000,0.000000,0.000000,0.000000,0.000000,0.000000,0.000000,0.000000,0.000000,0.000000,1770025105.460573,0.000000
196.000000,19081.058393,-4440.486960,-1687.154375,-1849.115115,-2607.420398,-14630.110816,-1169.800898,1362.092955,-1045.480495,-11181.527219,-3710.635449,-3785.960828,978.693483,14404.358197,-476.092157,-5040.228968,-0.002000,-0.014000,1.010000,192.000000,0.000000,0.000000,0.000000,0.000000,0.000000,0.000000,0.000000,0.000000,0.000000,1770025105.460592,0.000000
198.000000,19064.227529,-4456.848437,-1713.283564,-1868.449374,-2634.108381,-14645.533519,-1193.337285,1338.310699,-1047.827428,-11175.983986,-3715.217556,-3784.284447,974.066672,14412.874211,-479.511974,-5035.021011,-0.002000,-0.014000,1.010000,192.000000,0.000000,0.000000,0.000000,0.000000,0.000000,0.000000,0.000000,0.000000,0.000000,1770025105.460611,0.000000
200.000000,19076.163361,-4444.264405,-1700.632477,-1851.037365,-2611.913098,-14627.942697,-1181.826136,1350.514752,-1067.072280,-11186.042271,-3744.990080,-3802.076435,955.022985,14400.290179,-493.235945,-5044.542854,-0.002000,-0.010000,1.010000,192.000000,127.500000,120.000000,127.500000,88.000000,15.500000,72.000000,0.000000,0.000000,0.000000,1770025105.460629,0.000000
202.000000,19075.895140,-4446.946615,-1699.872518,-1853.808982,-2606.012238,-14624.120548,-1184.441290,1348.368984,-1040.473704,-11166.640957,-3702.700579,-3776.729557,993.222117,14424.988857,-465.922113,-5020.022991,-0.002000,-0.010000,1.010000,192.000000,0.000000,0.000000,0.000000,0.000000,0.000000,0.000000,0.000000,0.000000,0.000000,1770025105.460647,0.000000
204.000000,19065.367468,-4454.702670,-1708.299125,-1867.152973,-2619.892671,-14635.654048,-1198.053503,1335.539083,-1067.362853,-11186.064623,-3748.476952,-3800.444758,958.934541,14397.965598,-487.111567,-5047.180360,-0.002000,-0.010000,1.010000,192.000000,0.000000,0.000000,0.000000,0.000000,0.000000,0.000000,0.000000,0.000000,0.000000,1770025105.460666,0.000000
206.000000,19088.769744,-4435.726039,-1685.053311,-1843.773048,-2593.942296,-14616.543307,-1172.080776,1357.846124,-1044.899350,-11171.759507,-3709.584917,-3783.032749,978.380558,14416.025807,-469.654854,-5030.058924,-0.002000,-0.010000,1.010000,192.000000,0.000000,0.000000,0.000000,0.000000,0.000000,0.000000,0.000000,0.000000,0.000000,1770025105.460685,0.000000
208.000000,19068.764933,-4455.708498,-1708.567346,-1868.784650,-2628.743962,-14649.378019,-1197.450006,1336.768429,-1041.613643,-11174.240550,-3710.389580,-3786.944304,979.654608,14413.231839,-473.611113,-5035.199825,-0.002000,-0.010000,1.010000,192.000000,0.000000,0.000000,0.000000,0.000000,0.000000,0.000000,0.000000,0.000000,0.000000,1770025105.460703,0.000000
210.000000,19079.694936,-4448.332423,-1694.865727,-1854.703051,-2614.640011,-14640.437322,-1183.189593,1352.101726,-1064.524181,-11193.775975,-3740.229158,-3805.138624,953.100735,14389.226066,-495.627582,-5058.892674,-0.002000,-0.010000,1.010000,192.000000,0.000000,0.000000,127.500000,88.000000,15.500000,72.000000,0.000000,0.000000,0.000000,1770025105.460722,0.000000
212.000000,19072.765895,-4455.909664,-1695.268058,-1865.588351,-2609.387351,-14645.444112,-1192.353808,1338.891845,-1037.813847,-11171.312472,-3698.587859,-3779.143546,989.757596,14418.551555,-464.312788,-5034.819846,-0.002000,-0.010000,1.010000,192.000000,0.000000,0.000000,0.000000,0.000000,0.000000,0.000000,0.000000,0.000000,0.000000,1770025105.460740,0.000000
214.000000,19053.610450,-4471.064147,-1705.460454,-1883.447395,-2620.563223,-14659.860988,-1207.664753,1320.183435,-1068.502792,-11200.548554,-3756.367118,-3816.113331,960.208590,14389.159011,-478.461442,-5062.893637,-0.002000,-0.010000,1.010000,192.000000,0.000000,0.000000,0.000000,0.000000,0.000000,0.000000,0.000000,0.000000,0.000000,1770025105.460759,0.000000
216.000000,19077.638576,-4448.108905,-1685.612105,-1858.704014,-2599.507880,-14635.698752,-1177.847526,1348.592502,-1048.497981,-11186.243437,-3720.045533,-3797.606086,974.021968,14404.022921,-463.351663,-5043.425267,-0.002000,-0.010000,1.010000,192.000000,0.000000,0.000000,0.000000,0.000000,0.000000,0.000000,0.000000,0.000000,0.000000,1770025105.460777,0.000000
218.000000,19079.538474,-4454.635615,-1700.297201,-1873.947903,-2620.384409,-14647.455769,-1194.253706,1346.983176,-1039.087896,-11178.845010,-3709.115530,-3788.777147,983.588515,14406.660426,-470.817145,-5041.190093,-0.002000,-0.010000,1.010000,192.000000,0.000000,0.000000,0.000000,0.000000,0.000000,0.000000,0.000000,0.000000,0.000000,1770025105.460801,0.000000
220.000000,19104.706538,-4423.186710,-1685.299180,-1847.684604,-2595.976305,-14623.137072,-1175.321779,1375.124022,-1041.390126,-11175.961635,-3720.313754,-3784.932647,977.084157,14401.072490,-485.323427,-5047.448581,-0.004000,-0.008000,1.008000,192.000000,127.500000,104.000000,127.500000,104.000000,15.500000,56.000000,0.000000,0.000000,0.000000,1770025105.460833,0.000000
222.000000,19088.210951,-4431.680373,-1694.597506,-1850.389165,-2599.910212,-14625.193432,-1181.468508,1363.255246,-1015.752675,-11149.363059,-3675.006768,-3753.550798,1006.230832,14432.655505,-463.865753,-5018.033685,-0.004000,-0.008000,1.008000,192.000000,0.000000,0.000000,0.000000,0.000000,0.000000,0.000000,0.000000,0.000000,0.000000,1770025105.460853,0.000000
224.000000,19074.062297,-4452.668661,-1709.372009,-1868.114098,-2620.943203,-14640.862005,-1200.154567,1340.411763,-1052.275425,-11184.701167,-3732.763676,-3794.633304,969.059881,14399.977255,-490.844308,-5042.397087,-0.004000,-0.008000,1.008000,192.000000,0.000000,0.000000,0.000000,0.000000,0.000000,0.000000,0.000000,0.000000,0.000000,1770025105.460871,0.000000
226.000000,19089.954387,-4443.817370,-1688.137852,-1849.763316,-2601.273668,-14620.343103,-1178.003988,1361.869438,-1037.187998,-11180.007300,-3700.711274,-3787.301932,987.455367,14413.991799,-477.477965,-5024.895671,-0.004000,-0.008000,1.008000,192.000000,0.000000,0.000000,0.000000,0.000000,0.000000,0.000000,0.000000,0.000000,0.000000,1770025105.460890,0.000000
228.000000,19061.925299,-4475.132164,-1710.735465,-1879.982874,-2627.000526,-14644.013601,-1200.467491,1332.923929,-1043.222969,-11189.193867,-3707.349742,-3795.147395,972.725567,14407.979179,-476.852116,-5025.879148,-0.004000,-0.008000,1.008000,192.000000,0.000000,0.000000,0.000000,0.000000,0.000000,0.000000,0.000000,0.000000,0.000000,1770025105.460908,0.000000
230.000000,19068.675526,-4456.088478,-1703.515852,-1866.035386,-2615.310563,-14633.083598,-1184.977732,1341.931682,-1071.229705,-11204.750681,-3747.605234,-3818.929651,950.530285,14387.057947,-493.660628,-5049.169665,-0.005000,-0.006000,1.006000,192.000000,127.500000,104.000000,127.500000,112.000000,15.500000,48.000000,0.000000,0.000000,0.000000,1770025105.460927,0.000000
