Sample_index,EXG Channel 0,EXG Channel 1,EXG Channel 2,EXG Channel 3,EXG Channel 4,EXG Channel 5,EXG Channel 6,EXG Channel 7,EXG Channel 8,EXG Channel 9,EXG Channel 10,EXG Channel 11,EXG Channel 12,EXG Channel 13,EXG Channel 14,EXG Channel 15,Accel Channel 0,Accel Channel 1,Accel Channel 2,Not Used,Digital Channel 0 (D11),Digital Channel 1 (D12),Digital Channel 2 (D13),Digital Channel 3 (D17),Not Used,Digital Channel 4 (D18),Analog Channel 0,Analog Channel 1,Analog Channel 2,Timestamp,Marker Channel
210.000000,17256.910176,-4353.292805,-1813.665249,-1856.401784,-2561.286397,-14449.821645,-1363.411708,1441.240482,-1534.559016,-11674.293777,-3666.624864,-3576.279113,957.995767,14296.086347,-504.858852,-5017.430188,0.004000,-0.014000,1.004000,192.000000,0.000000,0.000000,0.000000,0.000000,0.000000,0.000000,0.000000,0.000000,0.000000,1770024997.747971,101.000000
212.000000,17238.402931,-4380.047843,-1840.263824,-1886.621342,-2597.652685,-14480.063555,-1395.486462,1413.412561,-1569.874772,-11695.840859,-3709.182585,-3605.001104,934.548787,14271.767649,-524.886015,-5036.697392,0.004000,-0.014000,1.004000,192.000000,0.000000,0.000000,0.000000,0.000000,0.000000,0.000000,0.000000,0.000000,0.000000,1770024997.748032,0.000000
214.000000,17266.096743,-4355.483276,-1813.128807,-1853.943092,-2563.745089,-14452.794427,-1364.931627,1447.767192,-1563.236304,-11697.718405,-3699.750149,-3597.714436,935.174636,14271.231207,-522.494378,-5035.333936,0.004000,-0.014000,1.004000,192.000000,0.000000,0.000000,0.000000,0.000000,0.000000,0.000000,0.000000,0.000000,0.000000,1770024997.748083,0.000000
216.000000,17244.951993,-4362.077041,-1826.696316,-1871.757432,-2581.492374,-14465.579625,-1384.981142,1428.879968,-1534.581367,-11674.964330,-3663.875599,-3577.463755,956.699366,14294.164097,-505.819977,-5019.821825,0.006000,-0.006000,1.008000,192.000000,0.000000,24.000000,127.500000,104.000000,15.500000,64.000000,0.000000,0.000000,0.000000,1770024997.748127,0.000000
218.000000,17265.515598,-4351.839942,-1821.331897,-1867.264732,-2573.892781,-14454.470808,-1380.756662,1434.311442,-1558.788307,-11694.142126,-3713.831748,-3605.291677,934.392325,14266.559692,-528.350535,-5045.481628,0.006000,-0.006000,1.008000,192.000000,0.000000,0.000000,0.000000,0.000000,0.000000,0.000000,0.000000,0.000000,0.000000,1770024997.748171,0.000000
220.000000,17277.138505,-4342.206340,-1810.178376,-1848.601025,-2557.531304,-14438.645773,-1362.696452,1448.057765,-1522.556129,-11664.660175,-3661.908646,-3568.657168,964.187201,14303.015387,-500.500262,-5013.183357,0.006000,-0.006000,1.008000,192.000000,0.000000,0.000000,0.000000,0.000000,0.000000,0.000000,0.000000,0.000000,0.000000,1770024997.748214,0.000000
222.000000,17240.705161,-4367.620274,-1829.020897,-1877.680645,-2589.427243,-14466.898378,-1388.959752,1426.421276,-1548.662966,-11681.669853,-3694.855117,-3587.566744,944.003575,14284.418736,-518.962803,-5033.411686,0.006000,-0.006000,1.008000,192.000000,0.000000,0.000000,0.000000,0.000000,0.000000,0.000000,0.000000,0.000000,0.000000,1770024997.748238,0.000000
224.000000,17280.044231,-4340.529959,-1802.064693,-1851.171476,-2560.347624,-14442.222052,-1356.795592,1456.394965,-1548.193580,-11683.927379,-3683.053396,-3589.712511,948.898607,14284.485791,-516.526463,-5034.641032,0.006000,-0.006000,1.008000,192.000000,0.000000,0.000000,0.000000,0.000000,0.000000,0.000000,0.000000,0.000000,0.000000,1770024997.748254,0.000000
226.000000,17274.724516,-4359.685404,-1823.924699,-1873.322055,-2588.913153,-14467.591282,-1378.275618,1434.847884,-1532.212082,-11665.330728,-3657.326538,-3571.562895,965.863581,14299.506164,-504.165948,-5021.207633,0.006000,-0.008000,1.008000,192.000000,0.000000,24.000000,127.500000,96.000000,15.500000,64.000000,0.000000,0.000000,0.000000,1770024997.748271,0.000000
228.000000,17260.419400,-4362.412317,-1827.411571,-1872.182116,-2589.807223,-14470.899340,-1376.219258,1435.429029,-1557.290740,-11699.864173,-3718.167987,-3601.670695,924.803427,14262.581082,-535.257224,-5053.371793,0.006000,-0.008000,1.008000,192.000000,0.000000,0.000000,0.000000,0.000000,0.000000,0.000000,0.000000,0.000000,0.000000,1770024997.748283,0.000000
230.000000,17261.894615,-4348.643643,-1816.056885,-1858.368738,-2572.529325,-14456.348354,-1363.568170,1443.945044,-1535.967175,-11676.484248,-3667.518934,-3578.894267,955.134744,14292.666530,-505.127073,-5019.888880,0.006000,-0.008000,1.008000,192.000000,0.000000,0.000000,0.000000,0.000000,0.000000,0.000000,0.000000,0.000000,0.000000,1770024997.748295,0.000000
232.000000,17239.475815,-4377.231524,-1834.877054,-1884.274409,-2597.317409,-14477.604863,-1390.524374,1421.146264,-1559.280045,-11698.277199,-3702.588821,-3602.140081,936.538093,14270.784172,-522.449675,-5038.127904,0.006000,-0.008000,1.008000,192.000000,0.000000,0.000000,0.000000,0.000000,0.000000,0.000000,0.000000,0.000000,0.000000,1770024997.748307,0.000000
234.000000,17278.501961,-4337.735991,-1806.579746,-1852.177304,-2565.957912,-14444.971316,-1357.510848,1455.590302,-1554.653234,-11691.549324,-3691.100024,-3594.451081,939.220302,14276.685032,-518.448713,-5033.702258,0.006000,-0.008000,1.008000,192.000000,0.000000,0.000000,0.000000,0.000000,0.000000,0.000000,0.000000,0.000000,0.000000,1770024997.748319,0.000000
236.000000,17273.897502,-4348.353070,-1820.996621,-1867.331787,-2579.458365,-14454.694325,-1376.889810,1439.608805,-1528.501693,-11666.962405,-3653.526742,-3571.093508,965.796526,14304.311789,-499.807358,-5014.837386,0.006000,-0.009000,1.009000,192.000000,0.000000,24.000000,127.500000,88.000000,15.500000,72.000000,0.000000,0.000000,0.000000,1770024997.748331,0.000000
238.000000,17297.612703,-4307.359970,-1814.715781,-1856.893522,-2573.535153,-14445.530110,-1372.575924,1453.802163,-1544.684356,-11671.790382,-3698.230231,-3586.851488,937.163942,14283.010576,-525.824788,-5042.508846,0.006000,-0.009000,1.009000,192.000000,0.000000,0.000000,0.000000,0.000000,0.000000,0.000000,0.000000,0.000000,0.000000,1770024997.748343,0.000000
240.000000,17288.493191,-4352.979881,-1803.472853,-1845.024746,-2553.619749,-14434.018962,-1355.454487,1460.552390,-1509.547414,-11647.426980,-3644.139009,-3554.463810,973.306712,14317.745187,-494.845270,-5010.747017,0.006000,-0.009000,1.009000,192.000000,0.000000,0.000000,0.000000,0.000000,0.000000,0.000000,0.000000,0.000000,0.000000,1770024997.748356,0.000000
242.000000,17237.665324,-4387.245105,-1824.550548,-1876.317188,-2583.638142,-14460.438724,-1386.858688,1425.683668,-1534.827237,-11690.901123,-3690.295361,-3591.433596,953.458363,14287.011538,-511.765541,-5033.411686,0.006000,-0.009000,1.009000,192.000000,0.000000,0.000000,0.000000,0.000000,0.000000,0.000000,0.000000,0.000000,0.000000,1770024997.748368,0.000000
244.000000,17248.774141,-4370.593056,-1804.232812,-1853.764278,-2550.199932,-14439.651601,-1362.450583,1430.824570,-1533.441428,-11686.140202,-3700.107777,-3608.152700,956.833477,14287.950312,-508.122207,-5029.187206,0.006000,-0.009000,1.009000,192.000000,0.000000,0.000000,0.000000,0.000000,0.000000,0.000000,0.000000,0.000000,0.000000,1770024997.748380,0.000000
246.000000,17193.230056,-4444.845551,-1819.834330,-1874.283180,-2562.716909,-14454.761381,-1383.438871,1405.768264,-1530.513350,-11697.919571,-3672.905704,-3611.550166,977.575895,14297.270989,-490.576087,-5014.882089,0.006000,-0.009000,1.009000,192.000000,0.000000,0.000000,127.500000,64.000000,15.500000,40.000000,0.000000,0.000000,0.000000,1770024997.748392,0.000000
248.000000,17174.879274,-4504.480005,-1821.175435,-1875.780746,-2565.466173,-14451.140398,-1384.064720,1394.950020,-1551.792211,-11729.681400,-3743.894845,-3644.898968,946.328157,14267.096134,-512.167872,-5036.697392,0.006000,-0.009000,1.009000,192.000000,0.000000,0.000000,0.000000,0.000000,0.000000,0.000000,0.000000,0.000000,0.000000,1770024997.748404,0.000000
250.000000,17125.191346,-4520.282688,-1803.517557,-1858.882828,-2542.846208,-14432.856671,-1367.747947,1413.189043,-1515.425922,-11729.882566,-3686.383806,-3622.077837,982.806204,14297.762727,-485.949276,-5008.891822,0.006000,-0.009000,1.009000,192.000000,0.000000,0.000000,0.000000,0.000000,0.000000,0.000000,0.000000,0.000000,0.000000,1770024997.748416,0.000000
252.000000,17106.393529,-4497.349798,-1823.723534,-1889.460014,-2564.952083,-14452.235633,-1396.313476,1370.094880,-1543.477362,-11753.575415,-3725.499359,-3660.031099,972.010311,14281.647120,-502.333105,-5026.907328,0.006000,-0.009000,1.009000,192.000000,0.000000,0.000000,0.000000,0.000000,0.000000,0.000000,0.000000,0.000000,0.000000,1770024997.748428,0.000000
254.000000,17096.447002,-4546.009546,-1798.711932,-1863.174363,-2532.229129,-14426.866403,-1368.373796,1395.598220,-1530.803923,-11751.228482,-3732.786028,-3676.884315,979.542849,14284.463440,-499.852061,-5025.655630,0.006000,-0.009000,1.009000,192.000000,0.000000,0.000000,0.000000,0.000000,0.000000,0.000000,0.000000,0.000000,0.000000,1770024997.748440,0.000000
0.000000,17047.742551,-4627.146378,-1809.373714,-1878.708825,-2541.370993,-14437.125854,-1386.702226,1382.589505,-1523.003164,-11766.897055,-3675.297341,-3631.130294,1006.499053,14298.053300,-482.060073,-5006.254316,0.002000,-0.012500,1.006500,192.000000,127.500000,120.000000,127.500000,64.000000,15.500000,48.000000,0.000000,0.000000,0.000000,1770024997.748453,0.000000
2.000000,17081.270168,-4580.587695,-1808.323182,-1875.132546,-2537.839417,-14430.621497,-1386.545764,1388.669180,-1539.454048,-11783.772622,-3729.835597,-3662.847419,986.382483,14273.488733,-505.775274,-5030.818883,0.002000,-0.012500,1.006500,192.000000,0.000000,0.000000,0.000000,0.000000,0.000000,0.000000,0.000000,0.000000,0.000000,1770024997.748465,0.000000
4.000000,17136.523680,-4538.477008,-1792.364036,-1853.831333,-2519.510987,-14412.851860,-1367.099746,1409.433950,-1497.186899,-11748.456865,-3677.063129,-3630.191520,1014.322163,14310.592629,-479.176698,-5002.968610,0.002000,-0.012500,1.006500,192.000000,0.000000,0.000000,0.000000,0.000000,0.000000,0.000000,0.000000,0.000000,0.000000,1770024997.748480,0.000000
6.000000,17105.901790,-4567.511924,-1818.426170,-1887.068377,-2553.306824,-14443.965488,-1397.587526,1378.275618,-1516.945841,-11760.593863,-3721.788969,-3654.107887,992.439806,14290.900742,-497.706294,-5023.398104,0.002000,-0.012500,1.006500,192.000000,0.000000,0.000000,0.000000,0.000000,0.000000,0.000000,0.000000,0.000000,0.000000,1770024997.748495,0.000000
8.000000,17132.634477,-4546.747154,-1796.432054,-1857.184095,-2526.574138,-14419.691493,-1366.697415,1412.160863,-1521.662059,-11768.551084,-3708.959068,-3645.591872,993.557393,14283.949349,-497.840404,-5025.253299,0.002000,-0.012500,1.006500,192.000000,0.000000,0.000000,0.000000,0.000000,0.000000,0.000000,0.000000,0.000000,0.000000,1770024997.748513,0.000000
10.000000,17133.327381,-4534.923081,-1808.591403,-1871.623322,-2535.224263,-14428.162805,-1383.997665,1397.431063,-1489.274381,-11745.394676,-3674.649140,-3623.441294,1017.183187,14310.078539,-476.382730,-5001.336932,0.002000,-0.012500,1.006500,192.000000,0.000000,0.000000,127.500000,56.000000,15.500000,40.000000,0.000000,0.000000,0.000000,1770024997.748529,0.000000
12.000000,17145.799654,-4530.117456,-1807.898499,-1872.003302,-2539.046411,-14428.185156,-1381.874249,1403.287220,-1513.928355,-11767.835828,-3724.091199,-3657.393593,978.760538,14277.646157,-505.551756,-5030.148331,0.002000,-0.012500,1.006500,192.000000,0.000000,0.000000,0.000000,0.000000,0.000000,0.000000,0.000000,0.000000,0.000000,1770024997.748546,0.000000
14.000000,17192.805373,-4491.225420,-1790.084158,-1850.255054,-2515.621783,-14406.436909,-1360.327168,1422.174444,-1483.462928,-11732.609479,-3668.904742,-3613.047732,1015.551509,14319.086292,-477.790889,-5000.576973,0.002000,-0.012500,1.006500,192.000000,0.000000,0.000000,0.000000,0.000000,0.000000,0.000000,0.000000,0.000000,0.000000,1770024997.748563,0.000000
16.000000,17162.697573,-4510.000886,-1814.536967,-1876.563057,-2544.388478,-14430.107406,-1391.284334,1398.079264,-1491.129576,-11747.562796,-3703.147614,-3640.160399,999.301791,14297.963893,-496.655762,-5016.804340,0.002000,-0.012500,1.006500,192.000000,0.000000,0.000000,0.000000,0.000000,0.000000,0.000000,0.000000,0.000000,0.000000,1770024997.748580,0.000000
18.000000,17202.528382,-4480.138955,-1786.552583,-1845.382374,-2506.055237,-14398.434984,-1360.103650,1428.544692,-1484.982846,-11737.459807,-3695.950353,-3630.660907,1001.715780,14303.373015,-494.219422,-5013.161005,0.002000,-0.012500,1.006500,192.000000,0.000000,0.000000,0.000000,0.000000,0.000000,0.000000,0.000000,0.000000,0.000000,1770024997.748600,0.000000
20.000000,17189.385556,-4477.859077,-1800.298905,-1863.397880,-2523.199025,-14411.980142,-1378.610895,1411.199738,-1465.916808,-11719.354894,-3653.884370,-3605.246974,1027.867321,14325.568298,-471.554753,-4991.479813,0.003000,-0.014250,1.005250,192.000000,0.000000,16.000000,127.500000,64.000000,15.500000,48.000000,0.000000,0.000000,0.000000,1770024997.748617,0.000000
22.000000,17186.457477,-4490.443109,-1799.807167,-1861.453278,-2523.064914,-14407.800365,-1378.074453,1412.071456,-1492.962419,-11745.193511,-3713.116492,-3641.769724,997.334838,14293.471193,-496.320486,-5019.285383,0.003000,-0.014250,1.005250,192.000000,0.000000,0.000000,0.000000,0.000000,0.000000,0.000000,0.000000,0.000000,0.000000,1770024997.748634,0.000000
24.000000,17186.502181,-4484.765766,-1788.296019,-1845.941168,-2511.464359,-14395.193982,-1362.227066,1429.237596,-1457.914884,-11718.103196,-3655.292529,-3600.642514,1026.168588,14326.082388,-472.761747,-4992.977380,0.003000,-0.014250,1.005250,192.000000,0.000000,0.000000,0.000000,0.000000,0.000000,0.000000,0.000000,0.000000,0.000000,1770024997.748651,0.000000
26.000000,17189.810239,-4499.115586,-1812.525310,-1876.719520,-2543.494409,-14424.497119,-1394.257116,1399.442720,-1478.724358,-11736.722200,-3697.604382,-3628.045753,1003.660381,14308.491565,-491.090177,-5013.853909,0.003000,-0.014250,1.005250,192.000000,0.000000,0.000000,0.000000,0.000000,0.000000,0.000000,0.000000,0.000000,0.000000,1770024997.748669,0.000000
28.000000,17207.289303,-4462.078746,-1790.911173,-1851.015014,-2517.521681,-14407.286275,-1365.892752,1423.314383,-1483.708797,-11738.912670,-3696.978533,-3632.538454,998.541832,14299.662626,-496.365189,-5020.224156,0.003000,-0.014250,1.005250,192.000000,0.000000,0.000000,0.000000,0.000000,0.000000,0.000000,0.000000,0.000000,0.000000,1770024997.748683,0.000000
30.000000,17194.817030,-4476.830897,-1803.182280,-1866.683586,-2529.435161,-14422.016075,-1379.951999,1412.652601,-1455.612654,-11719.913688,-3659.695823,-3606.319857,1021.966460,14317.074635,-479.243753,-5002.789796,0.003500,-0.015125,1.006625,192.000000,0.000000,16.000000,127.500000,64.000000,15.500000,64.000000,0.000000,0.000000,0.000000,1770024997.748700,0.000000
32.000000,17177.337966,-4512.213708,-1803.875185,-1869.410499,-2533.167903,-14424.318305,-1379.348502,1410.350372,-1490.906059,-11744.098275,-3705.159271,-3630.973832,994.093835,14285.066937,-501.796663,-5030.818883,0.003500,-0.015125,1.006625,192.000000,0.000000,0.000000,0.000000,0.000000,0.000000,0.000000,0.000000,0.000000,0.000000,1770024997.748718,0.000000
34.000000,17208.675111,-4475.959179,-1789.793586,-1852.490229,-2514.347734,-14406.414557,-1360.841258,1420.207491,-1462.340529,-11729.435531,-3663.428564,-3614.075913,1021.653536,14313.341893,-478.282628,-5004.622639,0.003500,-0.015125,1.006625,192.000000,0.000000,0.000000,0.000000,0.000000,0.000000,0.000000,0.000000,0.000000,0.000000,1770024997.748733,0.000000
36.000000,17164.999803,-4525.490645,-1814.201690,-1882.463918,-2543.740278,-14433.817796,-1391.284334,1392.804252,-1488.715588,-11747.808665,-3702.857042,-3641.903835,1000.240564,14298.969722,-496.499300,-5019.844177,0.003500,-0.015125,1.006625,192.000000,0.000000,0.000000,0.000000,0.000000,0.000000,0.000000,0.000000,0.000000,0.000000,1770024997.748750,0.000000
38.000000,17183.149419,-4482.977627,-1794.062769,-1856.759412,-2515.912356,-14410.728444,-1363.367005,1413.837244,-1486.346303,-11749.507397,-3700.957143,-3646.865922,996.373713,14290.610169,-496.633410,-5020.626488,0.003500,-0.015125,1.006625,192.000000,0.000000,0.000000,0.000000,0.000000,0.000000,0.000000,0.000000,0.000000,0.000000,1770024997.748762,0.000000
40.000000,17168.844303,-4526.228252,-1808.211423,-1875.668988,-2535.023097,-14423.133662,-1383.461223,1398.056912,-1467.883762,-11736.051647,-3670.961102,-3624.737695,1023.374620,14310.749091,-480.182526,-5003.169775,0.003750,-0.013562,1.004313,192.000000,0.000000,16.000000,127.500000,80.000000,15.500000,40.000000,0.000000,0.000000,0.000000,1770024997.748774,0.000000
42.000000,17193.721794,-4503.965915,-1808.367885,-1874.618456,-2541.326289,-14424.988857,-1381.293104,1398.816872,-1503.624201,-11760.482104,-3725.924042,-3649.056393,985.175489,14281.423602,-503.763617,-5028.918985,0.003750,-0.013562,1.004313,192.000000,0.000000,0.000000,0.000000,0.000000,0.000000,0.000000,0.000000,0.000000,0.000000,1770024997.748786,0.000000
44.000000,17213.860716,-4470.818278,-1786.083196,-1853.071374,-2524.115446,-14412.918915,-1358.896656,1425.728372,-1466.207381,-11728.653220,-3664.546152,-3623.106017,1015.797379,14310.346760,-482.037721,-5005.159081,0.003750,-0.013562,1.004313,192.000000,0.000000,0.000000,0.000000,0.000000,0.000000,0.000000,0.000000,0.000000,0.000000,1770024997.748798,0.000000
46.000000,17162.429352,-4514.694752,-1809.865452,-1882.620380,-2551.071650,-14441.327982,-1390.189098,1402.750779,-1478.634951,-11739.940851,-3687.009655,-3634.840683,1003.101588,14296.019291,-499.717951,-5024.426284,0.003750,-0.013562,1.004313,192.000000,0.000000,0.000000,0.000000,0.000000,0.000000,0.000000,0.000000,0.000000,0.000000,1770024997.748810,0.000000
48.000000,17195.264065,-4504.815281,-1790.642952,-1858.435793,-2515.957059,-14422.686627,-1363.501115,1427.181235,-1483.909963,-11748.143941,-3693.066978,-3630.593852,997.088968,14286.497448,-501.439035,-5026.572052,0.003750,-0.013562,1.004313,192.000000,0.000000,0.000000,0.000000,0.000000,0.000000,0.000000,0.000000,0.000000,0.000000,1770024997.748821,0.000000
50.000000,17183.037660,-4511.341990,-1801.952934,-1872.964427,-2537.280624,-14434.264831,-1379.370854,1411.982049,-1467.056747,-11732.967106,-3657.080669,-3612.734808,1018.256070,14307.575143,-483.043549,-5005.427302,0.003750,-0.013562,1.004313,192.000000,0.000000,0.000000,0.000000,0.000000,0.000000,0.000000,0.000000,0.000000,0.000000,1770024997.748833,0.000000
52.000000,17172.957024,-4509.330333,-1803.606964,-1875.154898,-2541.236882,-14438.109331,-1380.108461,1407.958735,-1490.011989,-11760.459752,-3709.741379,-3647.044736,986.091910,14276.506218,-507.004619,-5037.323241,0.002000,-0.008000,1.012000,192.000000,0.000000,8.000000,127.500000,96.000000,15.500000,80.000000,0.000000,0.000000,0.000000,1770024997.748845,0.000000
54.000000,17201.656664,-4478.283760,-1791.872298,-1858.972235,-2523.131969,-14413.410653,-1363.210543,1422.174444,-1464.441593,-11731.983630,-3658.310015,-3623.709515,1017.049076,14310.413815,-483.557640,-5011.104645,0.002000,-0.008000,1.012000,192.000000,0.000000,0.000000,0.000000,0.000000,0.000000,0.000000,0.000000,0.000000,0.000000,1770024997.748857,0.000000
56.000000,17188.223265,-4524.685982,-1814.648725,-1885.146127,-2547.875350,-14442.110293,-1390.949057,1397.386360,-1486.167489,-11749.976784,-3694.944524,-3643.960195,998.228907,14296.779251,-499.516785,-5027.332011,0.002000,-0.008000,1.012000,192.000000,0.000000,0.000000,0.000000,0.000000,0.000000,0.000000,0.000000,0.000000,0.000000,1770024997.748869,0.000000
58.000000,17191.821896,-4493.639409,-1790.352379,-1856.513543,-2519.175711,-14414.505889,-1360.841258,1422.576776,-1489.408492,-11752.726049,-3694.631600,-3637.969928,998.631239,14289.738451,-497.907459,-5029.902462,0.002000,-0.008000,1.012000,192.000000,0.000000,0.000000,0.000000,0.000000,0.000000,0.000000,0.000000,0.000000,0.000000,1770024997.748881,0.000000
60.000000,17168.129047,-4513.867738,-1806.088007,-1876.875982,-2536.654775,-14433.638982,-1379.862592,1402.639020,-1470.342454,-11738.689153,-3662.601550,-3623.731866,1020.066562,14308.670379,-483.825860,-5011.417569,0.002000,-0.008000,1.012000,192.000000,0.000000,0.000000,0.000000,0.000000,0.000000,0.000000,0.000000,0.000000,0.000000,1770024997.748893,0.000000
62.000000,17181.048355,-4525.758866,-1805.283344,-1880.631075,-2542.086249,-14434.510700,-1381.226049,1399.420369,-1501.254916,-11764.281900,-3720.537272,-3654.465515,982.605038,14276.282701,-512.972535,-5042.866474,0.002000,-0.014000,1.008000,192.000000,0.000000,8.000000,127.500000,72.000000,15.500000,64.000000,0.000000,0.000000,0.000000,1770024997.748911,0.000000
64.000000,17172.845265,-4515.231194,-1790.620600,-1863.911970,-2522.617879,-14422.083130,-1360.505982,1416.318287,-1482.255934,-11744.277089,-3669.038852,-3631.577329,1010.142387,14306.010521,-488.095044,-5015.977325,0.002000,-0.014000,1.008000,192.000000,0.000000,0.000000,0.000000,0.000000,0.000000,0.000000,0.000000,0.000000,0.000000,1770024997.748950,0.000000
66.000000,17149.465340,-4542.589729,-1815.185167,-1893.572735,-2552.435106,-14448.905223,-1390.993761,1383.997665,-1500.763178,-11763.387831,-3700.778329,-3648.072916,994.674980,14279.099021,-504.590631,-5035.937433,0.002000,-0.014000,1.008000,192.000000,0.000000,0.000000,0.000000,0.000000,0.000000,0.000000,0.000000,0.000000,0.000000,1770024997.748973,0.000000
68.000000,17152.192253,-4535.839502,-1793.526327,-1866.102441,-2521.388533,-14420.764377,-1363.903447,1402.281392,-1505.635858,-11764.639528,-3709.383751,-3655.426640,992.193936,14283.591721,-502.891898,-5034.439866,0.002000,-0.014000,1.008000,192.000000,0.000000,0.000000,0.000000,0.000000,0.000000,0.000000,0.000000,0.000000,0.000000,1770024997.748990,0.000000
70.000000,17113.411977,-4581.772337,-1809.239603,-1883.022712,-2537.325327,-14433.907203,-1381.606028,1381.963656,-1498.013913,-11754.111857,-3681.578181,-3641.948538,1011.259974,14303.060091,-486.977456,-5015.373828,0.002000,-0.014000,1.008000,192.000000,0.000000,0.000000,0.000000,0.000000,0.000000,0.000000,0.000000,0.000000,0.000000,1770024997.749008,0.000000
72.000000,17084.645281,-4610.963715,-1811.251260,-1886.375473,-2536.610071,-14433.571927,-1383.975313,1370.608970,-1533.530835,-11782.230351,-3741.659670,-3677.152536,980.235753,14275.500390,-510.022105,-5042.844122,0.002000,-0.014000,1.008000,192.000000,0.000000,0.000000,127.500000,56.000000,15.500000,72.000000,0.000000,0.000000,0.000000,1770024997.749025,0.000000
74.000000,17057.197339,-4645.318347,-1802.064693,-1869.790479,-2518.393400,-14409.812022,-1367.926761,1375.727519,-1520.388010,-11769.646319,-3702.119434,-3661.103983,1004.889727,14305.474079,-485.256372,-5012.602212,0.002000,-0.014000,1.008000,192.000000,0.000000,0.000000,0.000000,0.000000,0.000000,0.000000,0.000000,0.000000,0.000000,1770024998.227880,0.000000
76.000000,17004.246057,-4691.295885,-1824.416438,-1896.701979,-2545.304900,-14428.565136,-1398.772168,1344.748002,-1551.009899,-11787.997101,-3740.586786,-3686.272047,992.015122,14296.958065,-502.087236,-5027.220252,0.002000,-0.014000,1.008000,192.000000,0.000000,0.000000,0.000000,0.000000,0.000000,0.000000,0.000000,0.000000,0.000000,1770024998.227970,0.000000
78.000000,16986.007033,-4718.989696,-1805.819786,-1875.221953,-2517.476978,-14408.560325,-1374.051139,1356.996758,-1562.185772,-11801.877535,-3748.275786,-3700.018370,985.555468,14288.106774,-503.741265,-5028.382543,0.002000,-0.014000,1.008000,192.000000,0.000000,0.000000,0.000000,0.000000,0.000000,0.000000,0.000000,0.000000,0.000000,1770024998.228034,0.000000
80.000000,16943.024629,-4750.438601,-1818.113246,-1889.147090,-2531.424467,-14416.718711,-1389.473842,1336.433153,-1557.827182,-11793.607389,-3723.018315,-3687.523745,1018.099608,14304.423547,-487.089215,-5007.930697,0.002000,-0.014000,1.008000,192.000000,0.000000,0.000000,0.000000,0.000000,0.000000,0.000000,0.000000,0.000000,0.000000,1770024998.228087,0.000000
82.000000,16925.590268,-4764.855476,-1821.845987,-1890.577601,-2532.407943,-14419.579735,-1390.636133,1331.985156,-1594.327580,-11822.128215,-3780.864630,-3717.005696,969.059881,14277.646157,-509.664477,-5032.450561,0.006000,-0.012000,1.010000,192.000000,0.000000,24.000000,127.500000,80.000000,15.500000,72.000000,0.000000,0.000000,0.000000,1770024998.228146,0.000000
84.000000,16919.600000,-4764.386089,-1809.239603,-1874.953732,-2508.312763,-14405.140508,-1373.402938,1338.847141,-1576.423833,-11802.033997,-3740.296214,-3700.130129,996.083140,14306.323446,-486.843346,-5006.544889,0.006000,-0.012000,1.010000,192.000000,0.000000,0.000000,0.000000,0.000000,0.000000,0.000000,0.000000,0.000000,0.000000,1770024998.228166,0.000000
86.000000,16867.363974,-4826.792160,-1830.384353,-1903.116930,-2537.146513,-14432.052008,-1401.543784,1316.338934,-1601.971877,-11825.279811,-3776.327226,-3719.576147,983.901439,14288.486754,-496.789872,-5022.079351,0.006000,-0.012000,1.010000,192.000000,0.000000,0.000000,0.000000,0.000000,0.000000,0.000000,0.000000,0.000000,0.000000,1770024998.228181,0.000000
88.000000,16886.698232,-4797.064340,-1810.692467,-1877.792403,-2516.269984,-14412.784804,-1373.537049,1338.064830,-1611.963107,-11831.471244,-3780.194078,-3719.397333,975.385425,14288.576160,-501.170814,-5028.248433,0.006000,-0.012000,1.010000,192.000000,0.000000,0.000000,0.000000,0.000000,0.000000,0.000000,0.000000,0.000000,0.000000,1770024998.228193,0.000000
90.000000,16855.986936,-4819.192567,-1822.985926,-1893.438625,-2531.089190,-14420.943191,-1389.764415,1322.820940,-1592.718255,-11814.707436,-3745.705336,-3701.806510,1004.599155,14308.424510,-483.065901,-5008.467139,0.006000,-0.012000,1.010000,192.000000,0.000000,0.000000,0.000000,0.000000,0.000000,0.000000,0.000000,0.000000,0.000000,1770024998.228206,0.000000
92.000000,16857.931537,-4832.111875,-1830.943147,-1895.494985,-2534.017269,-14423.021903,-1394.190060,1311.980344,-1631.364421,-11842.714172,-3806.077398,-3735.311775,961.840267,14269.331309,-513.821902,-5035.848026,0.004000,-0.014000,1.012000,192.000000,0.000000,16.000000,127.500000,72.000000,15.500000,80.000000,0.000000,0.000000,0.000000,1770024998.228225,0.000000
94.000000,16856.121046,-4813.090541,-1813.240565,-1876.697168,-2513.520719,-14406.459261,-1374.587581,1326.464275,-1601.569545,-11824.206927,-3758.267016,-3713.876452,996.060788,14299.081480,-487.066863,-5006.746054,0.004000,-0.014000,1.012000,192.000000,0.000000,0.000000,0.000000,0.000000,0.000000,0.000000,0.000000,0.000000,0.000000,1770024998.228242,0.000000
96.000000,16838.999610,-4842.639547,-1834.988813,-1904.189814,-2544.634348,-14435.047142,-1402.795482,1298.010504,-1616.612269,-11836.813311,-3786.609028,-3729.634432,980.034587,14284.999881,-501.036704,-5022.124055,0.004000,-0.014000,1.012000,192.000000,0.000000,0.000000,0.000000,0.000000,0.000000,0.000000,0.000000,0.000000,0.000000,1770024998.228260,0.000000
98.000000,16837.166767,-4849.657994,-1814.604022,-1880.184040,-2519.063952,-14414.416482,-1374.699339,1324.631432,-1628.749267,-11850.716096,-3794.208621,-3737.681060,971.630331,14281.177733,-502.020180,-5026.750866,0.004000,-0.014000,1.012000,192.000000,0.000000,0.000000,0.000000,0.000000,0.000000,0.000000,0.000000,0.000000,0.000000,1770024998.228317,0.000000
100.000000,16842.642944,-4844.695907,-1828.976194,-1891.784595,-2534.821932,-14426.866403,-1390.211450,1307.130016,-1609.347953,-11832.611183,-3755.920083,-3717.631545,994.183242,14300.757861,-485.189317,-5005.851985,0.004000,-0.014000,1.012000,192.000000,0.000000,0.000000,0.000000,0.000000,0.000000,0.000000,0.000000,0.000000,0.000000,1770024998.228337,0.000000
102.000000,16837.613802,-4853.368384,-1829.445580,-1896.478462,-2535.067801,-14431.157938,-1393.184232,1304.291344,-1637.220578,-11856.460495,-3814.436950,-3753.997833,965.014215,14271.857056,-513.151349,-5033.746962,-0.002000,-0.008000,1.008000,192.000000,127.500000,120.000000,127.500000,96.000000,15.500000,64.000000,0.000000,0.000000,0.000000,1770024998.228354,0.000000
104.000000,16828.986028,-4846.729916,-1810.983039,-1879.066453,-2515.890004,-14413.321246,-1373.313531,1323.335030,-1605.168176,-11838.735561,-3754.690737,-3722.012487,994.943201,14299.036777,-488.542079,-5009.584726,-0.002000,-0.008000,1.008000,192.000000,0.000000,0.000000,0.000000,0.000000,0.000000,0.000000,0.000000,0.000000,0.000000,1770024998.228370,0.000000
106.000000,16831.198851,-4863.985463,-1833.960633,-1907.900203,-2544.433182,-14437.595241,-1402.080226,1297.786987,-1621.015563,-11850.470227,-3787.391339,-3740.966766,977.441785,14281.892989,-503.271878,-5022.101703,-0.002000,-0.008000,1.008000,192.000000,0.000000,0.000000,0.000000,0.000000,0.000000,0.000000,0.000000,0.000000,0.000000,1770024998.228388,0.000000
108.000000,16848.744970,-4850.283843,-1811.430074,-1882.061587,-2517.164054,-14416.696360,-1371.994778,1320.585766,-1618.713333,-11852.481884,-3789.291238,-3743.716031,975.966570,14277.422640,-506.222308,-5026.393238,-0.002000,-0.008000,1.008000,192.000000,0.000000,0.000000,0.000000,0.000000,0.000000,0.000000,0.000000,0.000000,0.000000,1770024998.228405,0.000000
110.000000,16845.995706,-4849.233311,-1822.471836,-1894.690322,-2527.490560,-14426.642886,-1386.970447,1311.689772,-1597.501528,-11834.622840,-3756.300063,-3724.001792,1002.967477,14301.629579,-485.412834,-5004.779101,-0.002000,-0.008000,1.008000,192.000000,0.000000,0.000000,0.000000,0.000000,0.000000,0.000000,0.000000,0.000000,0.000000,1770024998.228422,0.000000
112.000000,16826.706150,-4862.107916,-1822.583595,-1897.014904,-2529.077533,-14426.553479,-1390.077339,1314.573147,-1630.649165,-11855.253500,-3801.852918,-3750.510961,971.853849,14271.901759,-512.301983,-5035.177473,-0.006000,-0.014000,1.006000,192.000000,127.500000,104.000000,127.500000,72.000000,15.500000,56.000000,0.000000,0.000000,0.000000,1770024998.228439,0.000000
114.000000,16851.293069,-4851.066154,-1809.105493,-1880.206392,-2507.217527,-14408.135642,-1373.648807,1327.403048,-1599.334371,-11839.272003,-3746.532350,-3723.621812,1002.766311,14304.378844,-483.311770,-5004.935563,-0.006000,-0.014000,1.006000,192.000000,0.000000,0.000000,0.000000,0.000000,0.000000,0.000000,0.000000,0.000000,0.000000,1770024998.228460,0.000000
116.000000,16836.920898,-4865.393623,-1834.809999,-1908.548404,-2541.706269,-14433.102540,-1402.057874,1302.346742,-1611.896051,-11851.788980,-3780.909333,-3739.737420,987.120090,14284.798716,-499.516785,-5018.614831,-0.006000,-0.014000,1.006000,192.000000,0.000000,0.000000,0.000000,0.000000,0.000000,0.000000,0.000000,0.000000,0.000000,1770024998.228477,0.000000
118.000000,16844.945174,-4844.248872,-1812.771179,-1884.766148,-2516.337039,-14412.047197,-1374.587581,1327.671269,-1615.584089,-11851.364297,-3787.681912,-3741.302042,977.933523,14277.333233,-506.646992,-5021.833482,-0.006000,-0.014000,1.006000,192.000000,0.000000,0.000000,0.000000,0.000000,0.000000,0.000000,0.000000,0.000000,0.000000,1770024998.228494,0.000000
120.000000,16837.412636,-4856.274111,-1822.114208,-1900.255907,-2524.853054,-14427.268735,-1391.641962,1313.612022,-1600.563717,-11847.475093,-3753.148467,-3732.070772,998.698294,14292.420661,-488.184451,-5005.203784,-0.006000,-0.014000,1.006000,192.000000,0.000000,0.000000,0.000000,0.000000,0.000000,0.000000,0.000000,0.000000,0.000000,1770024998.228511,0.000000
122.000000,16848.029715,-4856.229407,-1820.750752,-1900.390017,-2525.255385,-14428.609840,-1395.195889,1314.550795,-1619.830921,-11864.283605,-3800.891793,-3754.087240,974.804279,14267.342003,-509.932698,-5032.294098,-0.006000,-0.014000,1.006000,192.000000,0.000000,0.000000,127.500000,56.000000,15.500000,40.000000,0.000000,0.000000,0.000000,1770024998.228528,0.000000
124.000000,16849.661392,-4855.156524,-1807.540871,-1886.688398,-2508.580984,-14417.746892,-1377.202735,1327.559510,-1592.561792,-11847.475093,-3747.761696,-3727.600423,1004.219175,14293.135916,-480.227230,-5004.644991,-0.006000,-0.014000,1.006000,192.000000,0.000000,0.000000,0.000000,0.000000,0.000000,0.000000,0.000000,0.000000,0.000000,1770024998.228546,0.000000
126.000000,16832.294086,-4880.101070,-1834.295909,-1915.432741,-2544.366127,-14446.245366,-1405.768264,1300.983286,-1617.439284,-11870.139762,-3783.613894,-3749.192208,981.487451,14270.270082,-501.819015,-5024.560395,-0.006000,-0.014000,1.006000,192.000000,0.000000,0.000000,0.000000,0.000000,0.000000,0.000000,0.000000,0.000000,0.000000,1770024998.228564,0.000000
128.000000,16839.647810,-4856.095297,-1814.536967,-1885.682569,-2516.627612,-14416.048159,-1377.739176,1323.133865,-1623.273089,-11869.893893,-3792.711054,-3751.494438,974.804279,14271.588835,-508.815111,-5025.677982,-0.006000,-0.014000,1.006000,192.000000,0.000000,0.000000,0.000000,0.000000,0.000000,0.000000,0.000000,0.000000,0.000000,1770024998.228580,0.000000
130.000000,16836.272697,-4870.221599,-1824.192920,-1897.931325,-2526.864711,-14422.485462,-1391.798424,1310.214556,-1600.407255,-11855.968756,-3753.126115,-3736.786990,998.139500,14297.785079,-489.056169,-4999.124110,-0.006000,-0.014000,1.006000,192.000000,0.000000,0.000000,0.000000,0.000000,0.000000,0.000000,0.000000,0.000000,0.000000,1770024998.228596,0.000000
132.000000,16845.168691,-4858.531637,-1822.650650,-1901.351142,-2527.647022,-14425.815871,-1394.346523,1311.421551,-1618.400409,-11874.610111,-3803.864575,-3761.016281,967.696424,14274.047527,-509.463311,-5027.957860,-0.005000,-0.012000,1.005000,192.000000,127.500000,112.000000,127.500000,88.000000,15.500000,48.000000,0.000000,0.000000,0.000000,1770024998.228612,0.000000
134.000000,16864.972337,-4837.699811,-1804.679847,-1879.021749,-2503.708303,-14403.464127,-1373.961732,1331.716935,-1586.638580,-11843.787055,-3746.241778,-3723.599461,1006.163777,14305.138803,-483.803509,-5004.130900,-0.005000,-0.012000,1.005000,192.000000,0.000000,0.000000,0.000000,0.000000,0.000000,0.000000,0.000000,0.000000,0.000000,1770024998.228628,0.000000
136.000000,16848.432046,-4861.146791,-1828.909138,-1906.357933,-2536.319499,-14427.715770,-1404.002476,1302.883184,-1596.965086,-11852.236015,-3774.963769,-3734.842388,994.473814,14291.258370,-500.321448,-5012.646915,-0.005000,-0.012000,1.005000,192.000000,0.000000,0.000000,0.000000,0.000000,0.000000,0.000000,0.000000,0.000000,0.000000,1770024998.228645,0.000000
138.000000,16855.919880,-4852.854294,-1810.468949,-1884.319113,-2514.928879,-14416.025807,-1376.420424,1321.748057,-1610.510243,-11862.249596,-3787.927781,-3745.414763,980.191050,14279.188428,-506.468178,-5016.334953,-0.005000,-0.012000,1.005000,192.000000,0.000000,0.000000,0.000000,0.000000,0.000000,0.000000,0.000000,0.000000,0.000000,1770024998.228661,0.000000
140.000000,16862.893625,-4857.034070,-1822.874167,-1900.345314,-2524.741295,-14427.380494,-1393.117177,1309.119321,-1590.371321,-11849.553806,-3749.773353,-3732.741324,1002.431035,14300.422585,-487.759768,-5000.979304,-0.005000,-0.012000,1.005000,192.000000,0.000000,0.000000,0.000000,0.000000,0.000000,0.000000,0.000000,0.000000,0.000000,1770024998.228678,0.000000
142.000000,16850.197834,-4868.724032,-1822.918871,-1901.328790,-2525.389496,-14423.647752,-1393.586563,1310.929812,-1613.594784,-11873.738393,-3803.037560,-3760.658653,979.766366,14274.315748,-508.256317,-5029.477779,-0.005000,-0.012000,1.005000,192.000000,0.000000,0.000000,127.500000,72.000000,15.500000,32.000000,0.000000,0.000000,0.000000,1770024998.228693,0.000000
144.000000,16874.158904,-4833.676497,-1804.813958,-1877.993569,-2502.970696,-14399.686682,-1370.117232,1330.375830,-1580.134223,-11848.100942,-3745.370060,-3721.990135,1008.667172,14306.278742,-483.423529,-5001.292229,-0.005000,-0.012000,1.005000,192.000000,0.000000,0.000000,0.000000,0.000000,0.000000,0.000000,0.000000,0.000000,0.000000,1770024998.228711,0.000000
146.000000,16837.725560,-4869.506344,-1831.099609,-1903.832186,-2534.643118,-14423.133662,-1400.493252,1300.357437,-1601.167214,-11855.834646,-3780.059967,-3738.284557,989.288210,14286.810373,-500.612021,-5008.869470,-0.005000,-0.012000,1.005000,192.000000,0.000000,0.000000,0.000000,0.000000,0.000000,0.000000,0.000000,0.000000,0.000000,1770024998.228731,0.000000
148.000000,16868.638023,-4842.728954,-1808.546699,-1884.542630,-2515.577080,-14410.303761,-1374.274656,1325.614908,-1614.175929,-11867.546960,-3788.643037,-3745.571225,977.441785,14278.070841,-508.993925,-5014.367999,-0.005000,-0.012000,1.005000,192.000000,0.000000,0.000000,0.000000,0.000000,0.000000,0.000000,0.000000,0.000000,0.000000,1770024998.228747,0.000000
150.000000,16857.730372,-4857.078774,-1818.448522,-1901.060569,-2536.498313,-14428.565136,-1388.624476,1317.635336,-1579.821298,-11853.130085,-3743.380754,-3730.148522,1003.503919,14295.058166,-489.659666,-4999.504089,-0.005000,-0.012000,1.005000,192.000000,0.000000,0.000000,0.000000,0.000000,0.000000,0.000000,0.000000,0.000000,0.000000,1770024998.228764,0.000000
152.000000,16870.046183,-4856.519980,-1820.907214,-1904.748607,-2531.715039,-14428.922764,-1394.368874,1313.075580,-1609.191490,-11876.442954,-3793.694531,-3756.121249,974.916038,14268.392535,-522.404971,-5030.818883,-0.003500,-0.013000,1.004500,192.000000,127.500000,120.000000,127.500000,72.000000,15.500000,48.000000,0.000000,0.000000,0.000000,1770024998.228781,0.000000
154.000000,16857.663316,-4852.876646,-1806.110359,-1880.787537,-2504.155338,-14404.335845,-1375.839278,1323.469141,-1584.828089,-11858.896835,-3750.041574,-3730.819074,1003.883899,14290.900742,-487.133919,-5001.403988,-0.003500,-0.013000,1.004500,192.000000,0.000000,0.000000,0.000000,0.000000,0.000000,0.000000,0.000000,0.000000,0.000000,1770024998.228794,0.000000
156.000000,16832.472900,-4873.306140,-1832.619528,-1906.469692,-2536.855940,-14433.191947,-1406.505872,1294.791853,-1609.929098,-11871.369108,-3782.742176,-3747.828752,985.220192,14281.088326,-501.595497,-5012.848081,-0.003500,-0.013000,1.004500,192.000000,0.000000,0.000000,0.000000,0.000000,0.000000,0.000000,0.000000,0.000000,0.000000,1770024998.228806,0.000000
158.000000,16852.701229,-4865.035995,-1813.486435,-1885.704921,-2517.074647,-14415.198793,-1380.846069,1314.863719,-1618.355706,-11883.394347,-3798.254287,-3765.665444,968.746956,14269.957157,-508.748056,-5019.508901,-0.003500,-0.013000,1.004500,192.000000,0.000000,0.000000,0.000000,0.000000,0.000000,0.000000,0.000000,0.000000,0.000000,1770024998.228818,0.000000
160.000000,16863.005383,-4856.207056,-1817.375638,-1897.104311,-2533.838455,-14431.202642,-1387.909220,1312.226213,-1586.772691,-11861.020250,-3752.522618,-3734.708278,998.608887,14298.030948,-490.352570,-5000.688732,-0.003500,-0.013000,1.004500,192.000000,0.000000,0.000000,0.000000,0.000000,0.000000,0.000000,0.000000,0.000000,0.000000,1770024998.228830,0.000000
162.000000,16850.846034,-4864.499553,-1823.567071,-1905.240346,-2542.153304,-14427.581659,-1392.603087,1308.068789,-1615.092351,-11877.560541,-3800.869441,-3757.819981,974.469003,14269.800695,-517.308774,-5030.997697,-0.002750,-0.012500,1.004250,192.000000,127.500000,120.000000,127.500000,80.000000,15.500000,48.000000,0.000000,0.000000,0.000000,1770024998.228842,0.000000
164.000000,16853.036505,-4853.278977,-1804.411626,-1883.559154,-2510.749103,-14413.365950,-1370.228990,1328.542987,-1598.596763,-11864.864750,-3752.790839,-3736.272900,989.377617,14291.705405,-486.195145,-5001.806319,-0.002750,-0.012500,1.004250,192.000000,0.000000,0.000000,0.000000,0.000000,0.000000,0.000000,0.000000,0.000000,0.000000,1770024998.228853,0.000000
166.000000,16837.949078,-4876.435384,-1827.769199,-1906.737913,-2537.951176,-14424.608877,-1398.191023,1297.898745,-1611.091389,-11870.743259,-3777.131889,-3747.918159,987.634181,14285.670434,-497.728646,-5012.311639,-0.002750,-0.012500,1.004250,192.000000,0.000000,0.000000,0.000000,0.000000,0.000000,0.000000,0.000000,0.000000,0.000000,1770024998.228865,0.000000
168.000000,16870.359107,-4856.385870,-1805.328048,-1879.424081,-2504.334152,-14399.083185,-1368.776127,1325.346687,-1612.074865,-11876.666472,-3787.480746,-3755.629510,973.977265,14290.252541,-504.501224,-5007.058979,-0.002750,-0.012500,1.004250,192.000000,0.000000,0.000000,0.000000,0.000000,0.000000,0.000000,0.000000,0.000000,0.000000,1770024998.228877,0.000000
170.000000,16869.666203,-4856.363518,-1814.916946,-1892.276334,-2509.475053,-14402.547705,-1386.724578,1309.767522,-1584.649275,-11854.582948,-3746.018260,-3735.267071,1007.057846,14308.357454,-478.483794,-4982.963798,-0.002750,-0.012500,1.004250,192.000000,0.000000,0.000000,0.000000,0.000000,0.000000,0.000000,0.000000,0.000000,0.000000,1770024998.228889,0.000000
172.000000,16851.538938,-4866.064175,-1816.749789,-1897.216069,-2513.833644,-14411.846031,-1391.172575,1309.678115,-1615.338220,-11875.414774,-3800.198889,-3756.277711,986.695407,14275.679204,-494.420587,-5009.964706,-0.000375,-0.013250,1.005125,192.000000,0.000000,8.000000,127.500000,72.000000,15.500000,56.000000,0.000000,0.000000,0.000000,1770024998.228900,0.000000
174.000000,16872.460171,-4840.024393,-1803.629315,-1876.563057,-2497.874498,-14399.597275,-1367.077394,1329.928795,-1592.204165,-11854.292375,-3746.800571,-3732.450751,1007.326067,14301.450765,-478.103814,-4991.524517,-0.000375,-0.013250,1.005125,192.000000,0.000000,0.000000,0.000000,0.000000,0.000000,0.000000,0.000000,0.000000,0.000000,1770024998.228912,0.000000
176.000000,16840.810101,-4884.727882,-1829.199711,-1908.682514,-2533.145551,-14428.833357,-1398.950982,1298.368132,-1607.358647,-11875.794754,-3779.031787,-3747.985214,990.361093,14284.217570,-495.761692,-5007.237793,-0.000375,-0.013250,1.005125,192.000000,0.000000,0.000000,0.000000,0.000000,0.000000,0.000000,0.000000,0.000000,0.000000,1770024998.228924,0.000000
178.000000,16871.186122,-4845.992308,-1798.108434,-1882.039235,-2503.484786,-14395.596313,-1367.345615,1330.219368,-1608.051551,-11878.365204,-3779.992912,-3756.165952,983.342646,14280.596588,-498.130977,-5014.435055,-0.000375,-0.013250,1.005125,192.000000,0.000000,0.000000,0.000000,0.000000,0.000000,0.000000,0.000000,0.000000,0.000000,1770024998.228938,0.000000
180.000000,16860.747857,-4859.649224,-1808.457292,-1891.046988,-2509.229184,-14394.232857,-1379.817889,1319.378772,-1575.976798,-11850.336117,-3734.417705,-3728.673307,1012.981059,14312.693693,-479.355512,-4984.371958,-0.000375,-0.013250,1.005125,192.000000,0.000000,0.000000,0.000000,0.000000,0.000000,0.000000,0.000000,0.000000,0.000000,1770024998.228950,0.000000
182.000000,16864.681764,-4864.633663,-1809.910156,-1893.192755,-2508.960963,-14397.518563,-1383.572982,1317.054190,-1608.297421,-11875.705347,-3788.866554,-3754.690737,991.881012,14285.916303,-503.450692,-5011.618735,-0.001187,-0.015625,1.005562,192.000000,127.500000,120.000000,127.500000,56.000000,15.500000,56.000000,0.000000,0.000000,0.000000,1770024998.228962,0.000000
184.000000,16871.074363,-4853.100163,-1793.794548,-1873.187944,-2488.307951,-14383.146391,-1362.383528,1333.326260,-1575.194487,-11847.385686,-3736.965804,-3723.599461,1018.434884,14316.851117,-467.911418,-4983.164964,-0.001187,-0.015625,1.005562,192.000000,0.000000,0.000000,0.000000,0.000000,0.000000,0.000000,0.000000,0.000000,0.000000,1770024998.228974,0.000000
186.000000,16846.286279,-4882.000969,-1822.762409,-1905.799139,-2517.253461,-14417.925706,-1393.094825,1298.926926,-1599.714351,-11868.753954,-3772.125098,-3747.605234,996.597230,14300.780213,-475.063977,-4996.441900,-0.001187,-0.015625,1.005562,192.000000,0.000000,0.000000,0.000000,0.000000,0.000000,0.000000,0.000000,0.000000,0.000000,1770024998.228987,0.000000
188.000000,16873.376593,-4859.179838,-1801.684714,-1879.334674,-2491.258382,-14400.625455,-1362.942322,1325.570205,-1606.710447,-11875.973567,-3781.825755,-3756.903560,986.762462,14281.714175,-481.814203,-5010.143520,-0.001187,-0.015625,1.005562,192.000000,0.000000,0.000000,0.000000,0.000000,0.000000,0.000000,0.000000,0.000000,0.000000,1770024998.229000,0.000000
190.000000,16853.818816,-4861.482067,-1815.878071,-1888.543593,-2509.095074,-14413.298895,-1376.308665,1316.473045,-1584.626923,-11854.582948,-3739.983289,-3733.747153,1010.835291,14298.433280,-467.240866,-4987.031816,-0.001187,-0.015625,1.005562,192.000000,0.000000,0.000000,0.000000,0.000000,0.000000,0.000000,0.000000,0.000000,0.000000,1770024998.229012,0.000000
192.000000,16850.264889,-4874.602541,-1824.014106,-1898.199546,-2520.405057,-14422.507813,-1388.535069,1307.308830,-1616.858139,-11883.327291,-3799.729502,-3751.874417,976.771233,14269.957157,-499.427378,-5019.777122,-0.001187,-0.015625,1.005562,192.000000,0.000000,0.000000,0.000000,0.000000,0.000000,0.000000,0.000000,0.000000,0.000000,1770024998.229024,0.000000
194.000000,16870.962604,-4857.726974,-1803.629315,-1877.792403,-2493.717074,-14401.720691,-1366.742118,1327.872435,-1590.393673,-11859.992070,-3753.059060,-3728.628603,1007.527233,14299.372053,-474.393424,-4990.742205,-0.002000,-0.018000,1.006000,192.000000,127.500000,120.000000,127.500000,56.000000,15.500000,56.000000,0.000000,0.000000,0.000000,1770024998.709345,0.000000
196.000000,16857.708020,-4868.969902,-1823.656478,-1906.022657,-2522.662583,-14421.524337,-1396.492290,1301.542080,-1598.753226,-11870.989128,-3781.557534,-3747.761696,988.975285,14290.520762,-490.531384,-5007.304848,-0.002000,-0.018000,1.006000,192.000000,0.000000,0.000000,0.000000,0.000000,0.000000,0.000000,0.000000,0.000000,0.000000,1770024998.709410,0.000000
198.000000,16853.975279,-4860.163314,-1799.874222,-1881.949828,-2498.276830,-14394.478726,-1369.111403,1325.324336,-1601.234269,-11875.928864,-3783.122156,-3757.708223,987.455367,14281.691823,-496.253430,-5010.098816,-0.002000,-0.018000,1.006000,192.000000,0.000000,0.000000,0.000000,0.000000,0.000000,0.000000,0.000000,0.000000,0.000000,1770024998.709462,0.000000
200.000000,16846.912127,-4875.116631,-1815.654554,-1899.138319,-2517.387571,-14406.436909,-1384.265886,1310.818054,-1589.410196,-11868.373974,-3740.586786,-3741.905539,1004.308582,14297.829783,-473.342892,-4981.913266,-0.002000,-0.018000,1.006000,192.000000,0.000000,0.000000,0.000000,0.000000,0.000000,0.000000,0.000000,0.000000,0.000000,1770024998.709514,0.000000
202.000000,16848.297936,-4880.749271,-1826.159874,-1905.977953,-2529.792789,-14418.551555,-1391.217278,1304.067827,-1620.613232,-11888.311730,-3800.802386,-3766.961845,971.384462,14261.307032,-502.690733,-5006.746054,-0.002000,-0.018000,1.006000,192.000000,0.000000,0.000000,0.000000,0.000000,0.000000,0.000000,0.000000,0.000000,0.000000,1770024998.709565,0.000000
204.000000,16869.688555,-4850.954396,-1809.776045,-1884.520279,-2504.960001,-14403.419424,-1366.697415,1325.056115,-1598.440301,-11867.345794,-3753.908426,-3734.261243,997.692466,14286.855076,-479.780195,-4989.870487,0.002000,-0.014000,1.010000,192.000000,0.000000,8.000000,127.500000,72.000000,15.500000,72.000000,0.000000,0.000000,0.000000,1770024998.709613,0.000000
206.000000,16856.635136,-4872.054442,-1830.764333,-1910.157729,-2526.529435,-14426.173499,-1398.861575,1296.155309,-1603.916479,-11870.832666,-3780.886982,-3751.203865,984.348474,14285.022233,-485.479890,-5007.774235,0.002000,-0.014000,1.010000,192.000000,0.000000,0.000000,0.000000,0.000000,0.000000,0.000000,0.000000,0.000000,0.000000,1770024998.709634,0.000000
208.000000,16863.161846,-4866.801782,-1807.652629,-1882.598028,-2494.275867,-14407.107461,-1372.218296,1318.685868,-1613.125397,-11877.828762,-3793.895697,-3757.127077,977.844116,14265.822085,-486.619829,-5011.149348,0.002000,-0.014000,1.010000,192.000000,0.000000,0.000000,0.000000,0.000000,0.000000,0.000000,0.000000,0.000000,0.000000,1770024998.709652,0.000000
210.000000,16863.586529,-4870.154544,-1813.642897,-1897.260773,-2499.863803,-14424.050084,-1383.416520,1310.169853,-1589.499603,-11868.351623,-3749.415725,-3737.926929,1008.756579,14284.843419,-463.105793,-4990.675150,0.002000,-0.014000,1.010000,192.000000,0.000000,0.000000,0.000000,0.000000,0.000000,0.000000,0.000000,0.000000,0.000000,1770024998.709679,0.000000
212.000000,16871.633157,-4851.133210,-1812.927641,-1898.870098,-2503.238917,-14420.920839,-1386.434005,1313.880243,-1608.409179,-11883.886085,-3795.460319,-3762.245627,983.119128,14263.229282,-493.682980,-5022.213462,0.002000,-0.014000,1.010000,192.000000,0.000000,0.000000,0.000000,0.000000,0.000000,0.000000,0.000000,0.000000,0.000000,1770024998.709696,0.000000
214.000000,16891.146230,-4830.681363,-1792.699312,-1871.712729,-2481.669483,-14386.409746,-1364.529296,1342.088144,-1569.718310,-11846.916300,-3734.596519,-3722.638336,1020.424190,14301.003730,-477.723834,-4993.737339,0.002000,-0.018000,1.010000,192.000000,0.000000,8.000000,127.500000,56.000000,15.500000,72.000000,0.000000,0.000000,0.000000,1770024998.709713,0.000000
216.000000,16855.137569,-4872.121498,-1826.562205,-1900.948811,-2512.112559,-14400.424290,-1405.321229,1300.737417,-1589.968990,-11852.817160,-3771.655711,-3734.395353,997.714817,14295.080518,-488.922058,-4990.585743,0.002000,-0.018000,1.010000,192.000000,0.000000,0.000000,0.000000,0.000000,0.000000,0.000000,0.000000,0.000000,0.000000,1770024998.709728,0.000000
218.000000,16874.695346,-4856.050593,-1811.206557,-1876.160726,-2494.946420,-14372.708127,-1382.276581,1317.255356,-1619.048610,-11870.855018,-3793.918049,-3756.635339,980.682788,14283.010576,-495.068788,-4981.712101,0.002000,-0.018000,1.010000,192.000000,0.000000,0.000000,0.000000,0.000000,0.000000,0.000000,0.000000,0.000000,0.000000,1770024998.709745,0.000000
220.000000,16868.705078,-4865.997120,-1820.683696,-1888.029502,-2509.765626,-14391.528295,-1395.777034,1307.509995,-1595.355760,-11851.252538,-3753.282577,-3732.316641,1011.505844,14310.704388,-475.131032,-4956.208760,0.002000,-0.018000,1.010000,192.000000,0.000000,0.000000,0.000000,0.000000,0.000000,0.000000,0.000000,0.000000,0.000000,1770024998.709762,0.000000
222.000000,16858.244462,-4860.453887,-1820.884862,-1898.981857,-2517.074647,-14412.293066,-1398.973334,1309.476949,-1609.347953,-11872.687861,-3798.567211,-3761.932702,976.346550,14277.534399,-499.717951,-5000.152290,0.002000,-0.018000,1.010000,192.000000,0.000000,0.000000,0.000000,0.000000,0.000000,0.000000,0.000000,0.000000,0.000000,1770024998.709779,0.000000
224.000000,16880.283282,-4843.578320,-1798.264897,-1876.227781,-2493.560611,-14399.664330,-1371.726557,1333.370964,-1582.056473,-11853.197140,-3741.994946,-3724.784103,1004.129768,14298.835611,-474.996921,-4991.725682,0.002000,-0.018000,1.010000,192.000000,0.000000,0.000000,127.500000,56.000000,15.500000,72.000000,0.000000,0.000000,0.000000,1770024998.709795,0.000000
226.000000,16872.080192,-4867.449983,-1822.382429,-1904.972125,-2517.722847,-14427.715770,-1400.850880,1306.772388,-1594.998133,-11864.663585,-3770.605179,-3735.579996,993.043303,14285.268102,-485.055206,-5008.645953,0.002000,-0.018000,1.010000,192.000000,0.000000,0.000000,0.000000,0.000000,0.000000,0.000000,0.000000,0.000000,0.000000,1770024998.709811,0.000000
228.000000,16894.431936,-4834.503512,-1798.287248,-1877.144203,-2498.366236,-14406.258095,-1370.228990,1334.533254,-1600.206089,-11865.088268,-3782.853935,-3740.989118,997.044265,14281.758878,-492.498337,-5015.776159,0.002000,-0.018000,1.010000,192.000000,0.000000,0.000000,0.000000,0.000000,0.000000,0.000000,0.000000,0.000000,0.000000,1770024998.709828,0.000000
230.000000,16872.840151,-4854.329509,-1810.513653,-1892.142223,-2515.666487,-14422.127834,-1383.103595,1320.719876,-1577.563772,-11846.089285,-3738.396315,-3720.179644,1015.283288,14307.396329,-476.941523,-4994.296133,0.002000,-0.018000,1.010000,192.000000,0.000000,0.000000,0.000000,0.000000,0.000000,0.000000,0.000000,0.000000,0.000000,1770024998.709843,0.000000
232.000000,16858.311517,-4865.281864,-1818.068542,-1897.394883,-2526.730600,-14427.201680,-1391.507851,1314.573147,-1611.449017,-11876.420602,-3792.576944,-3755.405993,980.123994,14272.862884,-506.736399,-5019.643011,0.002000,-0.018000,1.010000,192.000000,0.000000,0.000000,0.000000,0.000000,0.000000,0.000000,0.000000,0.000000,0.000000,1770024998.709860,0.000000
234.000000,16873.287186,-4848.719221,-1805.260993,-1874.417290,-2506.815196,-14404.559362,-1374.699339,1327.514807,-1587.130319,-11853.711230,-3745.973557,-3725.097027,1008.778931,14294.789945,-484.898744,-4982.941447,-0.004000,-0.012000,1.008000,192.000000,127.500000,112.000000,127.500000,80.000000,15.500000,64.000000,0.000000,0.000000,0.000000,1770024998.709876,0.000000
236.000000,16849.616688,-4871.719166,-1831.367830,-1902.692247,-2530.306879,-14419.333866,-1407.154072,1299.664533,-1612.074865,-11867.412849,-3775.343749,-3742.844313,988.952933,14277.132067,-496.923983,-4990.026950,-0.004000,-0.012000,1.008000,192.000000,0.000000,0.000000,0.000000,0.000000,0.000000,0.000000,0.000000,0.000000,0.000000,1770024998.709893,0.000000
238.000000,16881.378517,-4845.500570,-1808.814920,-1878.418252,-2496.354579,-14386.208580,-1381.673084,1326.285461,-1615.807607,-11871.905550,-3788.240706,-3750.399202,979.811070,14275.388631,-499.516785,-4994.609057,-0.004000,-0.012000,1.008000,192.000000,0.000000,0.000000,0.000000,0.000000,0.000000,0.000000,0.000000,0.000000,0.000000,1770024998.709910,0.000000
240.000000,16877.154038,-4857.615215,-1817.174472,-1894.064473,-2504.602373,-14396.691548,-1393.720674,1311.510958,-1585.409234,-11848.056239,-3747.158199,-3725.946394,1010.768236,14308.290399,-471.018311,-4966.445859,-0.004000,-0.012000,1.008000,192.000000,0.000000,0.000000,0.000000,0.000000,0.000000,0.000000,0.000000,0.000000,0.000000,1770024998.709927,0.000000
242.000000,16854.265851,-4868.500515,-1823.142388,-1906.961430,-2512.581946,-14410.147299,-1402.795482,1301.095045,-1621.127322,-11880.533323,-3807.999648,-3762.379737,979.587552,14271.410021,-496.499300,-5005.829633,-0.004000,-0.012000,1.008000,192.000000,0.000000,0.000000,0.000000,0.000000,0.000000,0.000000,0.000000,0.000000,0.000000,1770024998.709948,0.000000
244.000000,16884.887741,-4847.869855,-1802.198804,-1884.073244,-2491.034864,-14388.331996,-1377.381549,1326.754847,-1595.467519,-11853.621823,-3751.717955,-3734.529464,1006.119073,14299.483812,-474.594590,-4984.059034,-0.004000,-0.012000,1.004000,192.000000,127.500000,112.000000,127.500000,80.000000,15.500000,48.000000,0.000000,0.000000,0.000000,1770024998.709965,0.000000
246.000000,16854.131741,-4874.647245,-1829.177359,-1908.034314,-2520.360353,-14414.751758,-1408.562232,1299.753940,-1611.203147,-11865.289434,-3779.232953,-3749.259263,989.019989,14290.118431,-485.144613,-4991.815089,-0.004000,-0.012000,1.004000,192.000000,0.000000,0.000000,0.000000,0.000000,0.000000,0.000000,0.000000,0.000000,0.000000,1770024998.709982,0.000000
248.000000,16864.055915,-4852.161390,-1804.255164,-1888.051854,-2495.505213,-14393.852877,-1378.566191,1327.760676,-1618.132188,-11876.487658,-3788.240706,-3754.713089,975.944218,14277.176771,-491.157233,-5003.661514,-0.004000,-0.012000,1.004000,192.000000,0.000000,0.000000,0.000000,0.000000,0.000000,0.000000,0.000000,0.000000,0.000000,1770024998.709998,0.000000
250.000000,16879.679785,-4847.512227,-1808.367885,-1891.806947,-2512.738408,-14402.972389,-1383.572982,1323.983231,-1579.620132,-11845.150512,-3735.043554,-3720.738437,1012.422265,14310.860850,-474.862811,-4978.918133,-0.004000,-0.012000,1.004000,192.000000,0.000000,0.000000,0.000000,0.000000,0.000000,0.000000,0.000000,0.000000,0.000000,1770024998.710016,0.000000
252.000000,16866.805180,-4855.938835,-1818.001487,-1896.657276,-2526.372972,-14414.349427,-1394.100653,1316.942432,-1604.654086,-11870.318576,-3791.012322,-3751.673252,977.397082,14281.334195,-509.083332,-5006.544889,-0.004000,-0.012000,1.004000,192.000000,0.000000,0.000000,0.000000,0.000000,0.000000,0.000000,0.000000,0.000000,0.000000,1770024998.710033,0.000000
254.000000,16889.469849,-4840.963166,-1801.662362,-1880.653427,-2502.367199,-14399.686682,-1369.603141,1338.467161,-1583.665798,-11851.856035,-3745.101839,-3719.464388,1002.788663,14302.456594,-488.944410,-4980.728624,-0.006000,-0.020000,1.004000,192.000000,127.500000,104.000000,127.500000,48.000000,15.500000,48.000000,0.000000,0.000000,0.000000,1770024998.710050,0.000000
0.000000,16870.046183,-4876.413033,-1827.679792,-1910.001267,-2534.978394,-14436.097674,-1402.214337,1303.799606,-1601.390732,-11863.255425,-3775.455508,-3736.921100,991.098701,14287.883256,-497.661590,-5000.241697,-0.006000,-0.020000,1.004000,192.000000,0.000000,0.000000,0.000000,0.000000,0.000000,0.000000,0.000000,0.000000,0.000000,1770024998.710066,0.000000
2.000000,16863.072439,-4867.852314,-1810.178376,-1896.254944,-2521.433237,-14426.084092,-1378.521488,1317.255356,-1622.379020,-11887.171791,-3798.969543,-3760.815115,971.295055,14265.553864,-504.970611,-5022.436979,-0.006000,-0.020000,1.004000,192.000000,0.000000,0.000000,0.000000,0.000000,0.000000,0.000000,0.000000,0.000000,0.000000,1770024998.710081,0.000000
4.000000,16864.614709,-4866.868838,-1814.693429,-1907.140244,-2522.751990,-14432.163767,-1391.641962,1308.001734,-1600.004923,-11871.100887,-3755.316586,-3740.676193,995.501995,14288.017367,-485.412834,-5006.120206,-0.006000,-0.020000,1.004000,192.000000,0.000000,0.000000,0.000000,0.000000,0.000000,0.000000,0.000000,0.000000,0.000000,1770024998.710098,0.000000
6.000000,16866.313442,-4876.234219,-1823.589423,-1909.844805,-2517.387571,-14420.898488,-1402.236688,1301.162100,-1623.228386,-11891.373919,-3810.279526,-3772.750947,967.875238,14263.653965,-505.283535,-5023.554566,-0.006000,-0.020000,1.004000,192.000000,0.000000,0.000000,0.000000,0.000000,0.000000,0.000000,0.000000,0.000000,0.000000,1770024998.710114,0.000000
8.000000,16875.142381,-4846.796971,-1804.992772,-1877.412424,-2482.429443,-14378.586635,-1376.018092,1325.369039,-1593.478214,-11865.736469,-3760.569246,-3735.736458,1000.709951,14299.349701,-475.779232,-4975.565371,-0.002000,-0.017000,1.006000,192.000000,0.000000,8.000000,127.500000,72.000000,15.500000,64.000000,0.000000,0.000000,0.000000,1770024998.710129,0.000000
10.000000,16849.728447,-4876.301274,-1829.579691,-1905.799139,-2518.013420,-14403.777051,-1405.947078,1300.044513,-1611.851348,-11870.519742,-3785.893772,-3744.923025,992.082178,14294.901704,-481.568334,-4973.307845,-0.002000,-0.017000,1.006000,192.000000,0.000000,0.000000,0.000000,0.000000,0.000000,0.000000,0.000000,0.000000,0.000000,1770024998.710146,0.000000
12.000000,16875.030622,-4851.513189,-1808.814920,-1884.386168,-2506.010533,-14391.103612,-1379.035578,1326.374868,-1624.793008,-11875.973567,-3800.824738,-3751.159161,974.312541,14281.177733,-494.599401,-4991.524517,-0.002000,-0.017000,1.006000,192.000000,0.000000,0.000000,0.000000,0.000000,0.000000,0.000000,0.000000,0.000000,0.000000,1770024998.710162,0.000000
14.000000,16878.897474,-4853.614253,-1813.084103,-1896.366703,-2511.956097,-14408.046235,-1388.959752,1323.491493,-1596.898031,-11854.515893,-3752.835542,-3728.226272,1000.374675,14305.295265,-481.456576,-4981.600342,-0.002000,-0.017000,1.006000,192.000000,0.000000,0.000000,0.000000,0.000000,0.000000,0.000000,0.000000,0.000000,0.000000,1770024998.710176,0.000000
16.000000,16891.749727,-4853.793067,-1811.474778,-1902.692247,-2521.634402,-14423.290124,-1391.910182,1327.537158,-1612.611307,-11870.676204,-3793.403958,-3752.880246,979.252276,14283.099983,-510.871471,-5020.782950,-0.002000,-0.017000,1.006000,192.000000,0.000000,0.000000,0.000000,0.000000,0.000000,0.000000,0.000000,0.000000,0.000000,1770024998.710192,0.000000
18.000000,16903.707910,-4827.596823,-1794.956838,-1880.943999,-2501.786053,-14404.559362,-1368.306740,1349.643034,-1572.713443,-11841.842454,-3733.367173,-3718.011524,1013.182224,14313.855983,-494.331180,-5006.008447,0.000000,-0.015500,1.006000,192.000000,0.000000,8.000000,127.500000,72.000000,15.500000,56.000000,0.000000,0.000000,0.000000,1770024998.710213,0.000000
20.000000,16870.627328,-4867.852314,-1826.249281,-1912.214090,-2542.846208,-14434.197776,-1398.794520,1314.282574,-1601.815415,-11858.069820,-3770.091089,-3736.541121,993.713855,14288.419698,-508.658649,-5012.781026,0.000000,-0.015500,1.006000,192.000000,0.000000,0.000000,0.000000,0.000000,0.000000,0.000000,0.000000,0.000000,0.000000,1770024998.710230,0.000000
22.000000,16889.983939,-4846.461695,-1806.870318,-1891.002284,-2520.405057,-14425.033560,-1374.408767,1334.734420,-1617.282822,-11875.571236,-3789.201831,-3744.923025,974.871334,14274.136934,-516.370000,-5024.046305,0.000000,-0.015500,1.006000,192.000000,0.000000,0.000000,0.000000,0.000000,0.000000,0.000000,0.000000,0.000000,0.000000,1770024998.710246,0.000000
24.000000,16878.517494,-4855.201227,-1813.888766,-1903.183985,-2523.914280,-14430.643848,-1388.959752,1321.993926,-1594.551098,-11859.410925,-3749.259263,-3730.483798,1008.734227,14296.019291,-494.308829,-5004.466177,0.000000,-0.015500,1.006000,192.000000,0.000000,0.000000,0.000000,0.000000,0.000000,0.000000,0.000000,0.000000,0.000000,1770024998.710263,0.000000
26.000000,16874.225959,-4872.054442,-1819.320240,-1912.236442,-2518.348696,-14426.195851,-1400.202680,1311.488606,-1616.276993,-11885.584818,-3803.261078,-3759.429307,968.836363,14268.280777,-507.250489,-5023.062828,0.000000,-0.015500,1.006000,192.000000,0.000000,0.000000,0.000000,0.000000,0.000000,0.000000,0.000000,0.000000,0.000000,1770024998.710277,0.000000
28.000000,16890.028642,-4849.188608,-1796.543812,-1881.815717,-2487.793861,-14387.750851,-1374.051139,1335.382621,-1590.818356,-11864.261253,-3752.522618,-3735.222368,1002.520442,14295.661663,-479.511974,-4985.131918,0.002000,-0.016750,1.007000,192.000000,0.000000,16.000000,127.500000,56.000000,15.500000,64.000000,0.000000,0.000000,0.000000,1770024998.710292,0.000000
30.000000,16867.296918,-4879.274056,-1826.159874,-1908.682514,-2518.728676,-14406.928647,-1404.941249,1302.950240,-1605.525804,-11870.765611,-3774.203810,-3742.799609,995.122015,14293.381786,-486.888049,-4976.459441,0.002000,-0.016750,1.007000,192.000000,0.000000,0.000000,0.000000,0.000000,0.000000,0.000000,0.000000,0.000000,0.000000,1770024998.710326,0.000000
32.000000,16888.285206,-4862.040861,-1802.712894,-1884.654389,-2489.157318,-14384.353385,-1378.767357,1326.330164,-1614.600612,-11877.717004,-3794.588601,-3753.662557,982.292114,14283.837591,-495.515823,-4986.562429,0.002000,-0.016750,1.007000,192.000000,0.000000,0.000000,0.000000,0.000000,0.000000,0.000000,0.000000,0.000000,0.000000,1770024998.710339,0.000000
34.000000,16876.528189,-4858.732803,-1815.989830,-1898.534822,-2502.054274,-14394.344615,-1395.464110,1310.348667,-1587.890278,-11858.002765,-3754.489571,-3736.094086,1009.784759,14309.698559,-468.559619,-4967.049356,0.002000,-0.016750,1.007000,192.000000,0.000000,0.000000,0.000000,0.000000,0.000000,0.000000,0.000000,0.000000,0.000000,1770024998.710356,0.000000
36.000000,16868.503913,-4868.187591,-1819.275536,-1905.217994,-2512.336077,-14404.000569,-1400.292087,1307.331181,-1621.462598,-11883.751975,-3811.352409,-3764.972540,975.720701,14275.098059,-500.388503,-5009.160043,0.002000,-0.016750,1.007000,192.000000,0.000000,0.000000,0.000000,0.000000,0.000000,0.000000,0.000000,0.000000,0.000000,1770024998.710372,0.000000
38.000000,16895.996558,-4849.747401,-1797.124958,-1881.681607,-2495.371103,-14390.254246,-1372.374758,1333.080391,-1595.422816,-11859.165056,-3756.367118,-3733.054248,1007.706047,14302.836573,-479.824898,-4992.128014,0.003000,-0.014375,1.007500,192.000000,0.000000,16.000000,127.500000,80.000000,15.500000,64.000000,0.000000,0.000000,0.000000,1770024998.710388,0.000000
40.000000,16876.304671,-4875.228390,-1822.404781,-1912.906994,-2534.151379,-14428.922764,-1405.343581,1304.559565,-1603.491795,-11866.787001,-3778.294179,-3738.977461,996.038436,14285.759841,-502.087236,-5011.663438,0.003000,-0.014375,1.007500,192.000000,0.000000,0.000000,0.000000,0.000000,0.000000,0.000000,0.000000,0.000000,0.000000,1770024998.710402,0.000000
42.000000,16884.843038,-4856.207056,-1803.674019,-1890.756415,-2517.409923,-14416.495194,-1381.091938,1328.252414,-1613.147749,-11875.370070,-3790.185307,-3750.667423,980.056939,14269.577178,-513.263108,-5021.922889,0.003000,-0.014375,1.007500,192.000000,0.000000,0.000000,0.000000,0.000000,0.000000,0.000000,0.000000,0.000000,0.000000,1770024998.710419,0.000000
44.000000,16868.302747,-4867.897018,-1818.046191,-1906.089712,-2529.233996,-14433.638982,-1394.257116,1314.081408,-1594.752263,-11863.948329,-3748.789877,-3730.327336,998.295963,14292.375957,-494.241773,-4997.827708,0.003000,-0.014375,1.007500,192.000000,0.000000,0.000000,0.000000,0.000000,0.000000,0.000000,0.000000,0.000000,0.000000,1770024998.710436,0.000000
46.000000,16870.984956,-4875.563666,-1822.985926,-1915.008058,-2532.296185,-14443.339639,-1403.376627,1308.471120,-1632.169084,-11897.297132,-3808.401979,-3767.721804,969.059881,14255.048544,-521.689716,-5027.555529,0.003000,-0.014375,1.007500,192.000000,0.000000,0.000000,0.000000,0.000000,0.000000,0.000000,0.000000,0.000000,0.000000,1770024998.710449,0.000000
48.000000,16893.001424,-4847.132247,-1798.868394,-1887.135433,-2496.198117,-14409.744967,-1375.459299,1333.370964,-1596.071016,-11867.323442,-3753.282577,-3733.970670,1006.364942,14280.328367,-490.889012,-4993.960857,0.002500,-0.011187,1.006750,192.000000,0.000000,8.000000,127.500000,96.000000,15.500000,56.000000,0.000000,0.000000,0.000000,1770024998.710466,0.000000
50.000000,16888.039337,-4867.427631,-1821.711877,-1912.325849,-2523.936632,-14421.122005,-1406.997610,1304.112530,-1604.139996,-11868.463381,-3773.868534,-3743.984251,997.245431,14284.530495,-495.851099,-4995.033740,0.002500,-0.011187,1.006750,192.000000,0.000000,0.000000,0.000000,0.000000,0.000000,0.000000,0.000000,0.000000,0.000000,1770024998.710485,0.000000
52.000000,16904.870201,-4854.307157,-1797.907269,-1886.934267,-2494.655847,-14394.121098,-1383.125947,1328.386525,-1610.040857,-11872.866675,-3790.967618,-3752.612025,987.008332,14280.820105,-504.165948,-4999.392331,0.002500,-0.011187,1.006750,192.000000,0.000000,0.000000,0.000000,0.000000,0.000000,0.000000,0.000000,0.000000,0.000000,1770024998.710501,0.000000
54.000000,16880.327985,-4856.430573,-1803.338743,-1895.249116,-2493.471204,-14401.810098,-1391.463148,1321.681001,-1579.597781,-11851.453704,-3737.524597,-3726.818112,1020.290079,14309.050358,-479.579029,-4978.985188,0.002500,-0.011187,1.006750,192.000000,0.000000,0.000000,0.000000,0.000000,0.000000,0.000000,0.000000,0.000000,0.000000,1770024998.710515,0.000000
56.000000,16891.459154,-4860.498591,-1812.368847,-1901.485253,-2500.556707,-14402.212429,-1399.912107,1318.574109,-1606.665743,-11872.129067,-3793.560421,-3747.180551,997.468948,14283.457611,-501.863718,-5008.601249,0.002500,-0.011187,1.006750,192.000000,0.000000,0.000000,0.000000,0.000000,0.000000,0.000000,0.000000,0.000000,0.000000,1770024998.710531,0.000000
58.000000,16913.877954,-4830.726067,-1790.486490,-1875.445470,-2476.528582,-14373.713955,-1374.386415,1344.256263,-1578.994284,-11842.468303,-3744.341879,-3718.190338,1023.061695,14316.538193,-480.227230,-4982.986150,-0.000750,-0.009594,1.005375,192.000000,127.500000,112.000000,127.500000,96.000000,15.500000,48.000000,0.000000,0.000000,0.000000,1770024999.189495,0.000000
60.000000,16885.178314,-4860.990329,-1817.174472,-1903.899241,-2515.979411,-14400.491345,-1406.036485,1313.455559,-1592.762958,-11850.894910,-3763.989063,-3728.829769,1011.528195,14308.469213,-492.498337,-4992.686807,-0.000750,-0.009594,1.005375,192.000000,0.000000,0.000000,0.000000,0.000000,0.000000,0.000000,0.000000,0.000000,0.000000,1770024999.189565,0.000000
62.000000,16915.576686,-4832.827131,-1795.739150,-1878.641770,-2494.342922,-14383.951054,-1377.917990,1335.874359,-1599.133205,-11855.566425,-3780.998740,-3739.044516,998.787701,14299.550867,-507.518710,-5005.807281,-0.000750,-0.009594,1.005375,192.000000,0.000000,0.000000,0.000000,0.000000,0.000000,0.000000,0.000000,0.000000,0.000000,1770024999.189624,0.000000
64.000000,16897.538829,-4852.831942,-1803.897536,-1895.338523,-2502.523661,-14407.956828,-1393.005418,1320.518711,-1571.886429,-11836.165111,-3737.166969,-3717.072751,1027.129713,14323.020199,-483.915267,-4983.634351,-0.000750,-0.009594,1.005375,192.000000,0.000000,0.000000,0.000000,0.000000,0.000000,0.000000,0.000000,0.000000,0.000000,1770024999.189679,0.000000
66.000000,16896.041262,-4849.210960,-1810.468949,-1907.699038,-2515.867652,-14425.882927,-1402.862537,1311.108626,-1609.124435,-11869.670376,-3798.075473,-3757.127077,992.618620,14282.474134,-513.285460,-5020.984116,-0.000750,-0.009594,1.005375,192.000000,0.000000,0.000000,0.000000,0.000000,0.000000,0.000000,0.000000,0.000000,0.000000,1770024999.189735,0.000000
68.000000,16909.139384,-4843.220692,-1796.208536,-1885.235534,-2498.790920,-14411.398996,-1377.672121,1335.315566,-1582.883487,-11848.704439,-3750.488609,-3723.308888,1013.785722,14307.642199,-493.638276,-4999.325275,-0.000750,-0.009594,1.005375,192.000000,0.000000,0.000000,0.000000,0.000000,0.000000,0.000000,0.000000,0.000000,0.000000,1770024999.189790,0.000000
70.000000,16877.645776,-4870.802745,-1823.030630,-1914.963354,-2537.124161,-14441.372686,-1404.114235,1309.342838,-1595.534574,-11860.126181,-3769.487592,-3732.137827,1000.642896,14296.220457,-507.362247,-5010.523499,-0.002000,-0.012000,1.010000,192.000000,127.500000,120.000000,127.500000,80.000000,15.500000,72.000000,0.000000,0.000000,0.000000,1770024999.189821,0.000000
72.000000,16904.199648,-4845.120590,-1799.114263,-1888.744758,-2506.256402,-14417.545726,-1376.889810,1334.063868,-1607.582165,-11870.966777,-3783.748005,-3743.492513,985.443710,14283.368204,-516.928794,-5018.257203,-0.002000,-0.012000,1.010000,192.000000,0.000000,0.000000,0.000000,0.000000,0.000000,0.000000,0.000000,0.000000,0.000000,1770024999.189840,0.000000
74.000000,16900.064576,-4848.115724,-1802.601135,-1897.730159,-2504.088283,-14423.133662,-1390.256153,1324.743190,-1578.837821,-11848.972660,-3737.658708,-3717.698600,1023.754600,14306.882239,-485.435186,-4989.825784,-0.002000,-0.012000,1.010000,192.000000,0.000000,0.000000,0.000000,0.000000,0.000000,0.000000,0.000000,0.000000,0.000000,1770024999.189858,0.000000
76.000000,16892.263817,-4860.140963,-1810.826577,-1906.849671,-2513.632478,-14423.737159,-1400.605011,1313.902594,-1611.471368,-11870.542094,-3793.493365,-3746.822923,985.399006,14278.517875,-506.043494,-5016.938450,-0.002000,-0.012000,1.010000,192.000000,0.000000,0.000000,0.000000,0.000000,0.000000,0.000000,0.000000,0.000000,0.000000,1770024999.189900,0.000000
78.000000,16902.970302,-4838.124494,-1799.427187,-1886.241363,-2496.891021,-14403.151203,-1378.007397,1334.734420,-1586.370359,-11854.225320,-3750.466257,-3727.443961,1010.365905,14300.221419,-484.474061,-4991.479813,-0.002000,-0.012000,1.010000,192.000000,0.000000,0.000000,0.000000,0.000000,0.000000,0.000000,0.000000,0.000000,0.000000,1770024999.189920,0.000000
80.000000,16890.922712,-4857.458753,-1821.868339,-1909.151901,-2527.334097,-14421.434930,-1403.555441,1312.270917,-1595.422816,-11857.935710,-3769.085261,-3734.127132,996.865451,14295.572257,-502.578974,-5002.521575,-0.006000,-0.014000,1.004000,192.000000,127.500000,104.000000,127.500000,72.000000,15.500000,48.000000,0.000000,0.000000,0.000000,1770024999.189940,0.000000
82.000000,16904.087890,-4836.291651,-1801.327086,-1885.928438,-2503.864766,-14398.077357,-1381.628380,1333.348612,-1604.229403,-11861.444934,-3783.390377,-3740.810304,984.057901,14295.371091,-514.268936,-5010.814072,-0.006000,-0.014000,1.004000,192.000000,0.000000,0.000000,0.000000,0.000000,0.000000,0.000000,0.000000,0.000000,0.000000,1770024999.189969,0.000000
84.000000,16901.003349,-4843.935948,-1805.752731,-1895.383226,-2508.469225,-14406.123985,-1392.625438,1323.200920,-1576.200315,-11843.340021,-3735.892920,-3717.005696,1012.712838,14316.135861,-494.241773,-4986.942409,-0.006000,-0.014000,1.004000,192.000000,0.000000,0.000000,0.000000,0.000000,0.000000,0.000000,0.000000,0.000000,0.000000,1770024999.189988,0.000000
86.000000,16892.643797,-4857.704622,-1813.441731,-1906.424988,-2516.784074,-14417.881002,-1400.627363,1314.684905,-1607.738627,-11871.950253,-3792.845165,-3748.275786,983.588515,14282.116506,-517.308774,-5016.938450,-0.006000,-0.014000,1.004000,192.000000,0.000000,0.000000,0.000000,0.000000,0.000000,0.000000,0.000000,0.000000,0.000000,1770024999.190006,0.000000
88.000000,16914.481451,-4827.485064,-1798.153138,-1881.167517,-2491.616010,-14397.853839,-1375.280485,1337.550740,-1584.045778,-11846.670431,-3748.544007,-3721.699562,1004.219175,14308.469213,-495.471119,-4996.061921,-0.006000,-0.014000,1.004000,192.000000,0.000000,0.000000,0.000000,0.000000,0.000000,0.000000,0.000000,0.000000,0.000000,1770024999.190024,0.000000
90.000000,16887.212323,-4867.427631,-1822.248318,-1911.007096,-2516.784074,-14423.826566,-1407.355238,1305.341876,-1597.479176,-11856.929881,-3771.521601,-3733.970670,998.698294,14300.243771,-502.869547,-5005.114377,-0.004000,-0.016000,1.006000,192.000000,127.500000,112.000000,127.500000,64.000000,15.500000,56.000000,0.000000,0.000000,0.000000,1770024999.190043,0.000000
92.000000,16920.672884,-4830.055515,-1796.208536,-1885.727273,-2492.308914,-14398.926723,-1383.014188,1333.862702,-1595.042836,-11862.204893,-3782.295141,-3742.374926,993.244468,14292.599475,-505.171776,-5013.965668,-0.004000,-0.016000,1.006000,192.000000,0.000000,0.000000,0.000000,0.000000,0.000000,0.000000,0.000000,0.000000,0.000000,1770024999.190061,0.000000
94.000000,16911.195744,-4836.649279,-1803.294039,-1892.075168,-2504.244745,-14406.056929,-1390.032636,1329.839388,-1566.924342,-11835.762779,-3728.382734,-3711.395408,1019.775989,14321.947315,-483.110605,-4990.026950,-0.004000,-0.016000,1.006000,192.000000,0.000000,0.000000,0.000000,0.000000,0.000000,0.000000,0.000000,0.000000,0.000000,1770024999.190079,0.000000
96.000000,16897.158849,-4851.535541,-1816.682734,-1904.122758,-2519.667449,-14418.752720,-1399.085092,1317.165949,-1602.329505,-11865.892931,-3789.313589,-3745.839446,983.364997,14287.346815,-518.180492,-5018.324258,-0.004000,-0.016000,1.006000,192.000000,0.000000,0.000000,0.000000,0.000000,0.000000,0.000000,0.000000,0.000000,0.000000,1770024999.190097,0.000000
98.000000,16917.364826,-4831.530730,-1795.739150,-1883.827374,-2494.253516,-14398.949075,-1375.369892,1336.343746,-1574.009845,-11842.244785,-3744.520693,-3715.731647,1013.293983,14314.794757,-495.337009,-4991.144537,-0.004000,-0.016000,1.006000,192.000000,0.000000,0.000000,0.000000,0.000000,0.000000,0.000000,0.000000,0.000000,0.000000,1770024999.190115,0.000000
100.000000,16894.253122,-4863.270207,-1817.018010,-1916.080942,-2519.667449,-14421.345523,-1407.377590,1303.352571,-1585.878621,-11862.517817,-3767.855915,-3736.071734,1001.022875,14302.546001,-497.885108,-5002.342761,-0.004000,-0.016000,1.006000,192.000000,0.000000,0.000000,127.500000,64.000000,15.500000,88.000000,0.000000,0.000000,0.000000,1770024999.190133,0.000000
102.000000,16917.543640,-4840.739648,-1796.789682,-1890.063511,-2503.104806,-14404.313493,-1379.728482,1333.505074,-1591.377150,-11867.345794,-3780.596409,-3745.615929,992.663323,14286.184524,-505.149425,-5013.004543,-0.004000,-0.016000,1.006000,192.000000,0.000000,0.000000,0.000000,0.000000,0.000000,0.000000,0.000000,0.000000,0.000000,1770024999.190151,0.000000
104.000000,16903.462041,-4849.278015,-1810.088969,-1902.871061,-2519.578042,-14427.000514,-1386.590467,1323.670307,-1567.639597,-11849.643213,-3734.417705,-3715.262260,1012.154044,14311.821975,-491.693675,-4996.352493,-0.004000,-0.016000,1.006000,192.000000,0.000000,0.000000,0.000000,0.000000,0.000000,0.000000,0.000000,0.000000,0.000000,1770024999.190169,0.000000
106.000000,16889.425145,-4862.331434,-1821.555414,-1913.935174,-2532.854978,-14439.405732,-1395.352351,1309.611059,-1607.559813,-11881.427393,-3798.544860,-3752.008528,971.138593,14269.241902,-526.316527,-5033.925776,-0.004000,-0.016000,1.006000,192.000000,0.000000,0.000000,0.000000,0.000000,0.000000,0.000000,0.000000,0.000000,0.000000,1770024999.190187,0.000000
108.000000,16910.882820,-4848.786276,-1800.656533,-1893.058645,-2506.479920,-14412.918915,-1375.392243,1329.079429,-1587.130319,-11864.641233,-3755.450696,-3728.963879,1002.185166,14292.644178,-504.903556,-5007.327200,-0.004000,-0.016000,1.006000,192.000000,0.000000,0.000000,0.000000,0.000000,0.000000,0.000000,0.000000,0.000000,0.000000,1770024999.190204,0.000000
110.000000,16900.757480,-4860.118611,-1819.879034,-1919.232538,-2517.253461,-14426.195851,-1410.260965,1304.090179,-1593.254697,-11870.720908,-3772.192153,-3740.631490,994.317352,14288.218533,-506.132901,-5010.612906,0.002000,-0.014000,1.012000,192.000000,0.000000,8.000000,127.500000,72.000000,15.500000,80.000000,0.000000,0.000000,0.000000,1770024999.190223,0.000000
112.000000,16919.510593,-4840.382021,-1794.509804,-1890.018808,-2484.619914,-14391.193019,-1381.158993,1331.202845,-1593.768787,-11867.681070,-3785.133813,-3744.721859,995.412588,14289.827858,-504.501224,-5009.830595,0.002000,-0.014000,1.012000,192.000000,0.000000,0.000000,0.000000,0.000000,0.000000,0.000000,0.000000,0.000000,0.000000,1770024999.190240,0.000000
114.000000,16903.462041,-4855.223579,-1806.445635,-1896.009075,-2494.946420,-14398.502040,-1386.970447,1320.675173,-1568.868943,-11846.826893,-3737.748115,-3719.687905,1023.799303,14317.700484,-474.572238,-4976.235923,0.002000,-0.014000,1.012000,192.000000,0.000000,0.000000,0.000000,0.000000,0.000000,0.000000,0.000000,0.000000,0.000000,1770024999.190264,0.000000
116.000000,16890.743898,-4863.784297,-1819.409647,-1905.866194,-2518.952193,-14418.238630,-1395.419406,1311.354495,-1607.179833,-11874.140724,-3797.471976,-3746.509999,983.923791,14283.278797,-508.278669,-5004.332066,0.002000,-0.014000,1.012000,192.000000,0.000000,0.000000,0.000000,0.000000,0.000000,0.000000,0.000000,0.000000,0.000000,1770024999.190283,0.000000
118.000000,16915.107300,-4837.409239,-1800.500071,-1885.928438,-2500.221431,-14404.715825,-1374.162897,1334.086220,-1585.141013,-11856.661660,-3754.131943,-3722.683039,1000.955820,14301.517821,-496.856927,-4991.904496,0.002000,-0.014000,1.012000,192.000000,0.000000,0.000000,0.000000,0.000000,0.000000,0.000000,0.000000,0.000000,0.000000,1770024999.190301,0.000000
120.000000,16896.577704,-4864.656015,-1817.107417,-1915.320982,-2529.613975,-14433.057837,-1404.069531,1314.349629,-1588.560830,-11863.613053,-3766.358348,-3731.511978,998.273611,14293.381786,-507.675172,-5009.048284,0.002000,-0.014000,1.012000,192.000000,0.000000,0.000000,127.500000,96.000000,15.500000,56.000000,0.000000,0.000000,0.000000,1770024999.190319,0.000000
122.000000,16921.924582,-4835.710506,-1791.045283,-1887.873040,-2499.528527,-14412.158956,-1373.581752,1341.909330,-1594.707560,-11870.810315,-3775.030825,-3740.653842,989.914058,14283.435259,-515.386524,-5024.470988,0.002000,-0.014000,1.012000,192.000000,0.000000,0.000000,0.000000,0.000000,0.000000,0.000000,0.000000,0.000000,0.000000,1770024999.190337,0.000000
124.000000,16912.805070,-4847.400468,-1801.729417,-1898.356008,-2507.619859,-14423.446587,-1384.355293,1328.051249,-1561.582275,-11842.602413,-3727.041629,-3709.540213,1024.514559,14314.191260,-489.167927,-5001.448691,0.002000,-0.014000,1.012000,192.000000,0.000000,0.000000,0.000000,0.000000,0.000000,0.000000,0.000000,0.000000,0.000000,1770024999.190355,0.000000
126.000000,16899.170506,-4862.174971,-1811.318315,-1911.029447,-2517.745199,-14429.995648,-1394.726502,1315.266051,-1601.860118,-11871.659681,-3790.900563,-3744.744211,987.321256,14279.546056,-516.794684,-5032.808189,0.002000,-0.014000,1.012000,192.000000,0.000000,0.000000,0.000000,0.000000,0.000000,0.000000,0.000000,0.000000,0.000000,1770024999.190373,0.000000
128.000000,16927.825442,-4843.779486,-1789.100681,-1887.783633,-2489.313780,-14404.246438,-1371.614798,1338.869493,-1578.368435,-11856.214625,-3747.404068,-3724.359420,1013.986887,14306.770480,-491.783082,-5003.907383,0.002000,-0.014000,1.012000,192.000000,0.000000,0.000000,0.000000,0.000000,0.000000,0.000000,0.000000,0.000000,0.000000,1770024999.190391,0.000000
130.000000,16902.836192,-4865.281864,-1814.715781,-1916.371514,-2523.735466,-14430.017999,-1404.896546,1310.192205,-1581.654141,-11864.283605,-3764.637263,-3733.411876,1006.633163,14296.376919,-499.628544,-5005.248488,0.002000,-0.008000,1.010000,192.000000,0.000000,8.000000,127.500000,96.000000,15.500000,72.000000,0.000000,0.000000,0.000000,1770024999.190410,0.000000
132.000000,16916.515460,-4848.048669,-1795.940315,-1892.991590,-2501.294315,-14408.448566,-1376.822755,1333.616833,-1598.529708,-11871.883198,-3784.753833,-3742.039650,989.489375,14283.614073,-511.922003,-5012.646915,0.002000,-0.008000,1.010000,192.000000,0.000000,0.000000,0.000000,0.000000,0.000000,0.000000,0.000000,0.000000,0.000000,1770024999.190428,0.000000
134.000000,16924.495032,-4841.544311,-1800.142443,-1897.506642,-2503.082455,-14404.805232,-1381.449566,1326.620737,-1574.568638,-11850.134951,-3738.575129,-3719.754961,1018.256070,14312.224306,-490.151404,-4986.584781,0.002000,-0.008000,1.010000,192.000000,0.000000,0.000000,0.000000,0.000000,0.000000,0.000000,0.000000,0.000000,0.000000,1770024999.190446,0.000000
136.000000,16894.454288,-4864.432498,-1809.910156,-1912.638773,-2509.117426,-14417.121043,-1397.788691,1312.315620,-1596.205127,-11870.028003,-3793.828642,-3747.180551,994.004428,14287.056242,-512.167872,-5011.059941,0.002000,-0.008000,1.010000,192.000000,0.000000,0.000000,0.000000,0.000000,0.000000,0.000000,0.000000,0.000000,0.000000,1770024999.190464,0.000000
138.000000,16911.463965,-4849.523884,-1792.431091,-1892.142223,-2492.554783,-14404.894639,-1376.509831,1332.968632,-1586.236249,-11859.343870,-3748.074621,-3729.276804,1015.685620,14304.915286,-493.280648,-4989.468156,0.002000,-0.008000,1.010000,192.000000,0.000000,0.000000,0.000000,0.000000,0.000000,0.000000,0.000000,0.000000,0.000000,1770024999.190483,0.000000
140.000000,16897.091794,-4867.338224,-1815.967478,-1917.489102,-2527.311746,-14439.718657,-1404.225994,1313.768484,-1592.405330,-11866.518780,-3766.604217,-3735.065905,994.697332,14293.694710,-502.735436,-5007.483662,0.002000,-0.010000,1.011000,192.000000,0.000000,8.000000,127.500000,80.000000,15.500000,80.000000,0.000000,0.000000,0.000000,1770024999.190501,0.000000
142.000000,16919.465890,-4843.578320,-1794.509804,-1893.550383,-2507.463396,-14423.603049,-1375.816926,1339.964728,-1598.015618,-11867.412849,-3781.535182,-3733.925966,994.339704,14286.005710,-517.152311,-5025.230947,0.002000,-0.010000,1.011000,192.000000,0.000000,0.000000,0.000000,0.000000,0.000000,0.000000,0.000000,0.000000,0.000000,1770024999.190519,0.000000
144.000000,16918.571820,-4849.568587,-1800.365961,-1905.217994,-2515.442969,-14433.102540,-1383.461223,1326.956013,-1572.333464,-11850.202006,-3736.988155,-3715.664591,1013.159873,14310.078539,-495.113491,-5007.796586,0.002000,-0.010000,1.011000,192.000000,0.000000,0.000000,0.000000,0.000000,0.000000,0.000000,0.000000,0.000000,0.000000,1770024999.190537,0.000000
146.000000,16917.208364,-4860.655053,-1808.814920,-1917.243232,-2520.427408,-14437.908165,-1397.073435,1312.852062,-1598.082673,-11873.939559,-3793.895697,-3746.957034,986.583649,14279.300187,-515.766503,-5036.540930,0.002000,-0.010000,1.011000,192.000000,0.000000,0.000000,0.000000,0.000000,0.000000,0.000000,0.000000,0.000000,0.000000,1770024999.190559,0.000000
148.000000,16915.621390,-4843.399506,-1789.368902,-1891.918706,-2491.861879,-14417.076339,-1373.805269,1338.154237,-1576.714406,-11856.482846,-3747.046440,-3721.364286,1011.148216,14304.580010,-495.001733,-5009.607078,0.002000,-0.010000,1.011000,192.000000,0.000000,0.000000,0.000000,0.000000,0.000000,0.000000,0.000000,0.000000,0.000000,1770024999.190577,0.000000
150.000000,16903.417337,-4866.310044,-1813.687600,-1917.176177,-2526.417676,-14443.652564,-1401.879060,1312.785007,-1587.040912,-11866.518780,-3764.234932,-3731.579033,1000.508785,14295.527553,-504.322410,-5011.529328,0.004000,-0.014000,1.009500,192.000000,0.000000,24.000000,127.500000,56.000000,15.500000,64.000000,0.000000,0.000000,0.000000,1770024999.190595,0.000000
152.000000,16918.817689,-4842.281919,-1795.873260,-1895.763206,-2507.776321,-14423.357180,-1378.633246,1332.096914,-1596.383941,-11871.972605,-3782.183383,-3741.614967,988.081215,14277.713213,-519.029858,-5023.487511,0.004000,-0.014000,1.009500,192.000000,0.000000,0.000000,0.000000,0.000000,0.000000,0.000000,0.000000,0.000000,0.000000,1770024999.190614,0.000000
154.000000,16909.027625,-4854.262454,-1805.506862,-1905.441511,-2509.340943,-14424.675932,-1389.317380,1320.384600,-1576.312074,-11854.739410,-3738.798647,-3716.513958,1012.198748,14308.580972,-494.912326,-4996.017217,0.004000,-0.014000,1.009500,192.000000,0.000000,0.000000,0.000000,0.000000,0.000000,0.000000,0.000000,0.000000,0.000000,1770024999.190632,0.000000
156.000000,16910.480489,-4858.553989,-1811.966516,-1912.325849,-2513.140740,-14422.664275,-1400.113273,1315.534272,-1603.558851,-11874.811277,-3793.582772,-3744.028955,986.494242,14282.720003,-515.922966,-5015.195014,0.004000,-0.014000,1.009500,192.000000,0.000000,0.000000,0.000000,0.000000,0.000000,0.000000,0.000000,0.000000,0.000000,1770024999.190649,0.000000
158.000000,16940.834158,-4829.608480,-1792.721664,-1888.565944,-2480.708358,-14397.987950,-1376.867458,1338.355403,-1574.523935,-11853.398306,-3747.560531,-3720.224347,1011.505844,14308.491565,-491.760730,-4991.300999,0.004000,-0.014000,1.009500,192.000000,0.000000,0.000000,0.000000,0.000000,0.000000,0.000000,0.000000,0.000000,0.000000,1770024999.190667,0.000000
160.000000,16907.932390,-4850.932044,-1815.676906,-1918.740799,-2515.375914,-14430.688552,-1402.907241,1311.198033,-1581.229458,-11858.338041,-3763.340862,-3725.029972,1005.962611,14302.814222,-498.108625,-5000.509918,0.003000,-0.014000,1.005750,192.000000,0.000000,8.000000,127.500000,72.000000,15.500000,40.000000,0.000000,0.000000,0.000000,1770024999.190685,0.000000
162.000000,16924.070349,-4846.148771,-1796.119129,-1899.853575,-2503.261269,-14425.346485,-1375.481650,1334.041516,-1601.949525,-11873.760745,-3791.347598,-3743.917196,986.874221,14283.859942,-515.341820,-5026.706162,0.003000,-0.014000,1.005750,192.000000,0.000000,0.000000,0.000000,0.000000,0.000000,0.000000,0.000000,0.000000,0.000000,1770024999.190703,0.000000
164.000000,16917.811861,-4853.368384,-1798.778987,-1906.380285,-2512.425484,-14437.170558,-1380.041406,1331.605176,-1564.309187,-11849.263233,-3733.791856,-3711.350705,1016.356172,14311.620809,-494.666457,-5008.042456,0.003000,-0.014000,1.005750,192.000000,0.000000,0.000000,0.000000,0.000000,0.000000,0.000000,0.000000,0.000000,0.000000,1770024999.190721,0.000000
166.000000,16916.202535,-4858.755154,-1810.156025,-1916.058590,-2525.031868,-14446.379476,-1394.882964,1320.429304,-1602.441263,-11877.337024,-3791.638171,-3746.733516,983.297942,14280.082498,-520.572128,-5039.089029,0.003000,-0.014000,1.005750,192.000000,0.000000,0.000000,0.000000,0.000000,0.000000,0.000000,0.000000,0.000000,0.000000,1770024999.190739,0.000000
168.000000,16927.423111,-4838.325660,-1791.984056,-1890.599953,-2499.975562,-14414.327075,-1370.072528,1341.551702,-1576.937923,-11855.901701,-3747.627586,-3721.990135,1007.236660,14306.256390,-500.254393,-5008.869470,0.003000,-0.014000,1.005750,192.000000,0.000000,0.000000,0.000000,0.000000,0.000000,0.000000,0.000000,0.000000,0.000000,1770024999.190757,0.000000
170.000000,16909.452308,-4863.247855,-1815.788664,-1920.394828,-2529.077533,-14437.058799,-1398.191023,1313.164987,-1584.068130,-11862.115486,-3765.531333,-3725.521711,1000.911117,14299.416757,-508.479835,-5012.490453,-0.000500,-0.014000,1.002875,192.000000,127.500000,112.000000,127.500000,72.000000,15.500000,32.000000,0.000000,0.000000,0.000000,1770024999.190775,0.000000
172.000000,16918.437710,-4850.261492,-1797.348475,-1900.926459,-2505.965830,-14418.037464,-1376.107499,1334.019164,-1593.411159,-11872.754916,-3786.787842,-3739.446847,991.545736,14286.810373,-515.453579,-5021.989944,-0.000500,-0.014000,1.002875,192.000000,0.000000,0.000000,0.000000,0.000000,0.000000,0.000000,0.000000,0.000000,0.000000,1770024999.190794,0.000000
174.000000,16930.328838,-4846.305233,-1806.423283,-1902.289915,-2512.872519,-14419.959714,-1383.997665,1329.548815,-1568.265446,-11853.957099,-3737.368135,-3716.044571,1015.350344,14312.023140,-495.158195,-4995.793700,-0.000500,-0.014000,1.002875,192.000000,0.000000,0.000000,0.000000,0.000000,0.000000,0.000000,0.000000,0.000000,0.000000,1770024999.190811,0.000000
176.000000,16901.070404,-4863.404317,-1817.688563,-1914.158692,-2527.065876,-14428.118101,-1397.766340,1312.136807,-1603.514147,-11880.242751,-3799.304819,-3746.912330,980.056939,14279.613111,-522.606137,-5016.513767,-0.000500,-0.014000,1.002875,192.000000,0.000000,0.000000,0.000000,0.000000,0.000000,0.000000,0.000000,0.000000,0.000000,1770024999.190830,0.000000
178.000000,16914.257933,-4845.701736,-1792.900478,-1892.119872,-2491.794824,-14404.402900,-1371.905371,1335.181455,-1582.078824,-11861.780210,-3752.790839,-3719.553795,1004.554451,14304.468251,-493.973552,-4986.696540,-0.000500,-0.014000,1.002875,192.000000,0.000000,0.000000,0.000000,0.000000,0.000000,0.000000,0.000000,0.000000,0.000000,1770024999.670418,0.000000
180.000000,16899.125802,-4865.974768,-1819.946089,-1924.216977,-2525.702420,-14432.141415,-1401.610840,1306.370056,-1591.846537,-11872.263178,-3770.515772,-3734.238891,993.915021,14294.745242,-503.249526,-4997.201860,-0.000500,-0.014000,1.002875,192.000000,0.000000,0.000000,127.500000,80.000000,15.500000,32.000000,0.000000,0.000000,0.000000,1770024999.670498,0.000000
182.000000,16924.807957,-4847.758096,-1800.343609,-1901.149976,-2505.563498,-14417.031636,-1376.755700,1333.885054,-1603.312982,-11879.125163,-3793.113386,-3741.167932,978.581724,14282.608245,-520.482721,-5018.279555,-0.000500,-0.014000,1.002875,192.000000,0.000000,0.000000,0.000000,0.000000,0.000000,0.000000,0.000000,0.000000,0.000000,1770024999.670553,0.000000
184.000000,16929.591230,-4841.745477,-1804.433978,-1903.563965,-2508.201004,-14425.145319,-1383.081243,1333.817999,-1568.332501,-11850.917262,-3738.552778,-3706.522728,1011.282326,14310.838498,-497.438073,-5003.147424,-0.000500,-0.014000,1.002875,192.000000,0.000000,0.000000,0.000000,0.000000,0.000000,0.000000,0.000000,0.000000,0.000000,1770024999.670607,0.000000
186.000000,16913.632085,-4861.191495,-1815.051057,-1915.343334,-2521.701458,-14435.851805,-1394.279467,1320.161083,-1600.563717,-11873.201951,-3795.326209,-3735.959975,979.565201,14283.010576,-522.226157,-5032.562319,-0.000500,-0.014000,1.002875,192.000000,0.000000,0.000000,0.000000,0.000000,0.000000,0.000000,0.000000,0.000000,0.000000,1770024999.670663,0.000000
188.000000,16931.759349,-4834.659974,-1796.297943,-1893.908011,-2500.556707,-14418.372741,-1371.167764,1337.573092,-1583.330522,-11859.790904,-3756.747098,-3719.777312,1000.955820,14303.976512,-503.629506,-5009.361209,-0.000500,-0.014000,1.002875,192.000000,0.000000,0.000000,0.000000,0.000000,0.000000,0.000000,0.000000,0.000000,0.000000,1770024999.670712,0.000000
190.000000,16907.664169,-4864.477201,-1821.130731,-1921.177139,-2538.577025,-14445.463055,-1401.432026,1311.801530,-1592.405330,-11864.238902,-3772.706243,-3728.360382,991.098701,14297.427451,-509.686829,-5013.786854,-0.000500,-0.014000,1.002875,192.000000,0.000000,0.000000,127.500000,88.000000,15.500000,48.000000,0.000000,0.000000,0.000000,1770024999.670748,0.000000
192.000000,16920.650532,-4848.562759,-1803.696371,-1897.931325,-2517.029943,-14424.810043,-1377.582714,1334.466199,-1607.537461,-11879.169867,-3794.521546,-3740.676193,972.792622,14282.742355,-525.757733,-5026.281479,-0.000500,-0.014000,1.002875,192.000000,0.000000,0.000000,0.000000,0.000000,0.000000,0.000000,0.000000,0.000000,0.000000,1770024999.670771,0.000000
194.000000,16917.007198,-4849.255663,-1811.228908,-1905.799139,-2524.718943,-14425.637057,-1388.780938,1325.145522,-1577.675531,-11858.069820,-3743.850141,-3715.329315,1005.046189,14308.312751,-501.327276,-4994.787871,-0.000500,-0.014000,1.002875,192.000000,0.000000,0.000000,0.000000,0.000000,0.000000,0.000000,0.000000,0.000000,0.000000,1770024999.670788,0.000000
196.000000,16904.557276,-4859.224541,-1821.577766,-1917.354991,-2530.664507,-14426.754645,-1400.672066,1316.495397,-1613.125397,-11878.342852,-3800.243592,-3740.966766,972.502050,14279.300187,-525.869492,-5012.691619,-0.000500,-0.014000,1.002875,192.000000,0.000000,0.000000,0.000000,0.000000,0.000000,0.000000,0.000000,0.000000,0.000000,1770024999.670817,0.000000
198.000000,16929.121843,-4835.330526,-1797.393179,-1893.393921,-2494.901716,-14403.419424,-1372.821793,1339.674156,-1588.761996,-11861.087306,-3755.338938,-3719.665554,997.647762,14303.305960,-500.097930,-4990.138708,-0.000500,-0.014000,1.002875,192.000000,0.000000,0.000000,0.000000,0.000000,0.000000,0.000000,0.000000,0.000000,0.000000,1770024999.670835,0.000000
200.000000,16916.001369,-4863.314910,-1817.397990,-1914.337506,-2517.499330,-14421.122005,-1398.906278,1319.065847,-1585.923324,-11864.417716,-3766.000720,-3726.907519,994.451463,14302.814222,-501.439035,-4996.419549,0.000750,-0.014000,1.004437,192.000000,0.000000,8.000000,127.500000,72.000000,15.500000,56.000000,0.000000,0.000000,0.000000,1770024999.670851,0.000000
202.000000,16920.091739,-4840.203207,-1803.003466,-1895.584392,-2500.757873,-14409.968485,-1377.873287,1335.494379,-1596.965086,-11868.083402,-3788.307761,-3735.065905,985.376654,14294.432318,-514.246585,-5013.831557,0.000750,-0.014000,1.004437,192.000000,0.000000,0.000000,0.000000,0.000000,0.000000,0.000000,0.000000,0.000000,0.000000,1770024999.670868,0.000000
204.000000,16919.689407,-4849.278015,-1807.116187,-1902.893412,-2504.177690,-14417.746892,-1385.763453,1328.140656,-1576.222667,-11851.967794,-3744.945377,-3716.066923,1010.589422,14317.387559,-490.598439,-4993.267953,0.000750,-0.014000,1.004437,192.000000,0.000000,0.000000,0.000000,0.000000,0.000000,0.000000,0.000000,0.000000,0.000000,1770024999.670884,0.000000
206.000000,16908.245314,-4859.135134,-1814.626374,-1916.662087,-2522.416714,-14436.097674,-1393.675970,1319.602289,-1608.096255,-11876.085326,-3799.751854,-3740.095048,976.279494,14284.329329,-517.979326,-5027.689639,0.000750,-0.014000,1.004437,192.000000,0.000000,0.000000,0.000000,0.000000,0.000000,0.000000,0.000000,0.000000,0.000000,1770024999.670901,0.000000
208.000000,16925.679675,-4841.589015,-1794.710969,-1892.477500,-2500.489652,-14420.339694,-1365.892752,1343.853932,-1585.275124,-11861.511989,-3750.242740,-3717.318620,999.793529,14304.244733,-501.930773,-5007.953049,0.000750,-0.014000,1.004437,192.000000,0.000000,0.000000,0.000000,0.000000,0.000000,0.000000,0.000000,0.000000,0.000000,1770024999.670917,0.000000
210.000000,16907.731224,-4858.576341,-1819.387295,-1915.186872,-2529.591623,-14438.668125,-1393.966543,1319.691696,-1586.929153,-11866.027041,-3761.619778,-3726.482836,995.077311,14297.986245,-509.418608,-5012.132825,0.000750,-0.014000,1.004437,192.000000,0.000000,0.000000,0.000000,0.000000,0.000000,0.000000,0.000000,0.000000,0.000000,1770024999.670943,0.000000
212.000000,16934.039227,-4837.789218,-1801.081216,-1892.946886,-2502.702475,-14410.169650,-1373.693511,1338.735382,-1598.127377,-11871.145591,-3784.865592,-3732.808379,985.667227,14290.029024,-519.253375,-5014.367999,0.000750,-0.014000,1.004437,192.000000,0.000000,0.000000,127.500000,56.000000,15.500000,56.000000,0.000000,0.000000,0.000000,1770024999.670961,0.000000
214.000000,16924.875012,-4850.216788,-1808.144368,-1899.965334,-2505.965830,-14409.074415,-1380.957828,1328.632394,-1568.332501,-11848.056239,-3740.586786,-3709.003771,1016.914966,14321.254411,-490.374922,-4982.047377,0.000750,-0.014000,1.004437,192.000000,0.000000,0.000000,0.000000,0.000000,0.000000,0.000000,0.000000,0.000000,0.000000,1770024999.670978,0.000000
216.000000,16904.423166,-4858.576341,-1820.191958,-1915.544500,-2525.277737,-14422.351351,-1393.094825,1312.896766,-1609.504415,-11877.694652,-3802.031732,-3747.851103,979.095814,14287.950312,-520.370963,-5010.411741,0.000750,-0.014000,1.004437,192.000000,0.000000,0.000000,0.000000,0.000000,0.000000,0.000000,0.000000,0.000000,0.000000,1770024999.670995,0.000000
218.000000,16927.177242,-4843.511265,-1800.209498,-1891.091691,-2503.149510,-14405.632246,-1367.949112,1337.081353,-1583.777557,-11860.193236,-3756.657691,-3723.934737,997.111320,14307.441033,-501.506090,-4990.228115,0.000750,-0.014000,1.004437,192.000000,0.000000,0.000000,0.000000,0.000000,0.000000,0.000000,0.000000,0.000000,0.000000,1770024999.671012,0.000000
220.000000,16905.674864,-4868.388756,-1819.543757,-1915.119817,-2526.127103,-14425.570002,-1396.224069,1313.254394,-1592.002999,-11867.144628,-3772.482726,-3726.080504,994.049131,14301.026082,-506.915213,-4992.418586,0.000750,-0.014000,1.004437,192.000000,0.000000,0.000000,0.000000,0.000000,0.000000,0.000000,0.000000,0.000000,0.000000,1770024999.671029,0.000000
222.000000,16927.087835,-4843.377154,-1799.807167,-1894.131529,-2497.650981,-14406.191040,-1373.894676,1336.634318,-1592.830013,-11874.878332,-3791.057025,-3739.536254,982.850907,14291.817163,-510.849120,-5000.666380,0.000750,-0.014000,1.004437,192.000000,0.000000,0.000000,127.500000,72.000000,15.500000,48.000000,0.000000,0.000000,0.000000,1770024999.671046,0.000000
224.000000,16928.294829,-4849.769753,-1805.149234,-1903.273392,-2504.244745,-14418.305685,-1379.616723,1330.353478,-1573.562810,-11846.648079,-3741.391449,-3711.529519,1010.991753,14319.175699,-487.983285,-4983.746109,0.000750,-0.014000,1.004437,192.000000,0.000000,0.000000,0.000000,0.000000,0.000000,0.000000,0.000000,0.000000,0.000000,1770024999.671063,0.000000
226.000000,16902.478564,-4867.137059,-1811.251260,-1917.958488,-2517.655792,-14435.516529,-1388.110386,1318.484702,-1605.391694,-11878.767536,-3795.505022,-3743.179589,980.146346,14282.205913,-510.826768,-5022.056999,0.000750,-0.014000,1.004437,192.000000,0.000000,0.000000,0.000000,0.000000,0.000000,0.000000,0.000000,0.000000,0.000000,1770024999.671079,0.000000
228.000000,16931.401721,-4848.316890,-1792.811071,-1893.148052,-2499.126196,-14417.165746,-1363.590522,1343.317490,-1577.049682,-11865.647062,-3748.521656,-3722.034838,1003.883899,14301.853097,-488.519727,-5002.678037,0.000750,-0.014000,1.004437,192.000000,0.000000,0.000000,0.000000,0.000000,0.000000,0.000000,0.000000,0.000000,0.000000,1770024999.671096,0.000000
230.000000,16906.725396,-4870.825096,-1822.896519,-1924.373439,-2534.956042,-14442.534976,-1400.761473,1307.688809,-1586.169194,-11871.771440,-3766.470106,-3735.356478,992.886840,14293.828820,-500.880241,-5007.148386,0.000750,-0.014000,1.004437,192.000000,0.000000,0.000000,0.000000,0.000000,0.000000,0.000000,0.000000,0.000000,0.000000,1770024999.671110,0.000000
232.000000,16917.565992,-4850.596768,-1803.651667,-1900.300610,-2515.130045,-14417.188098,-1377.292142,1331.426362,-1600.407255,-11881.606207,-3793.247496,-3746.845275,980.146346,14280.775402,-520.840349,-5019.195976,0.000750,-0.014000,1.004437,192.000000,0.000000,0.000000,127.500000,80.000000,15.500000,24.000000,0.000000,0.000000,0.000000,1770024999.671128,0.000000
234.000000,16918.638875,-4852.384907,-1804.523385,-1904.301572,-2515.152397,-14421.166709,-1381.181345,1325.681964,-1568.623074,-11852.481884,-3741.592615,-3719.374981,1009.337724,14319.667437,-497.974515,-4992.329179,0.000750,-0.014000,1.004437,192.000000,0.000000,0.000000,0.000000,0.000000,0.000000,0.000000,0.000000,0.000000,0.000000,1770024999.671144,0.000000
236.000000,16919.041207,-4863.605483,-1811.139501,-1916.460921,-2519.309821,-14421.010246,-1395.620572,1315.623679,-1598.529708,-11874.833629,-3797.360217,-3745.727688,984.415529,14282.809410,-519.767466,-5018.659534,0.000750,-0.014000,1.004437,192.000000,0.000000,0.000000,0.000000,0.000000,0.000000,0.000000,0.000000,0.000000,0.000000,1770024999.671162,0.000000
238.000000,16929.747692,-4844.494741,-1789.033626,-1889.348255,-2483.770547,-14397.205639,-1370.631322,1343.049269,-1573.629865,-11857.019288,-3749.728650,-3724.471179,1014.344515,14307.955123,-491.648971,-4989.512860,0.000750,-0.014000,1.004437,192.000000,0.000000,0.000000,0.000000,0.000000,0.000000,0.000000,0.000000,0.000000,0.000000,1770024999.671179,0.000000
240.000000,16913.877954,-4862.420841,-1812.972345,-1913.823415,-2515.040638,-14418.864479,-1398.481595,1318.261184,-1577.116737,-11854.605300,-3757.708223,-3724.515882,1009.091855,14310.391463,-495.605230,-4989.065825,0.000750,-0.014000,1.004437,192.000000,0.000000,0.000000,0.000000,0.000000,0.000000,0.000000,0.000000,0.000000,0.000000,1770024999.671196,0.000000
242.000000,16928.853623,-4839.890282,-1800.522423,-1894.042122,-2504.647077,-14408.537973,-1375.638113,1335.762600,-1596.808624,-11869.044527,-3785.200868,-3737.122266,989.779948,14296.265161,-514.961841,-5007.014275,0.002000,-0.012000,1.004000,192.000000,0.000000,8.000000,127.500000,80.000000,15.500000,48.000000,0.000000,0.000000,0.000000,1770024999.671217,0.000000
244.000000,16929.792396,-4844.964128,-1804.657496,-1899.875927,-2511.799635,-14419.356217,-1380.041406,1332.812170,-1571.349987,-11843.876462,-3737.926929,-3710.277821,1018.814864,14325.121263,-495.582878,-4984.796641,0.002000,-0.012000,1.004000,192.000000,0.000000,0.000000,0.000000,0.000000,0.000000,0.000000,0.000000,0.000000,0.000000,1770024999.671235,0.000000
246.000000,16920.292904,-4857.682271,-1812.547661,-1915.969183,-2520.025077,-14431.627325,-1395.374703,1320.071676,-1595.199298,-11870.519742,-3791.638171,-3741.413801,983.454404,14291.928922,-519.834521,-5019.061866,0.002000,-0.012000,1.004000,192.000000,0.000000,0.000000,0.000000,0.000000,0.000000,0.000000,0.000000,0.000000,0.000000,1770024999.671252,0.000000
248.000000,16939.113073,-4830.413142,-1792.609905,-1893.863308,-2489.067911,-14410.884906,-1375.392243,1339.294176,-1568.488964,-11851.610166,-3750.399202,-3723.152426,1013.495149,14313.028969,-492.207765,-5003.281534,0.002000,-0.012000,1.004000,192.000000,0.000000,0.000000,0.000000,0.000000,0.000000,0.000000,0.000000,0.000000,0.000000,1770024999.671268,0.000000
250.000000,16915.196707,-4870.199248,-1816.213347,-1919.165482,-2518.505158,-14430.174462,-1401.744950,1312.740304,-1580.558906,-11857.086343,-3767.565342,-3729.321507,1001.112282,14310.078539,-495.337009,-5008.556546,0.002000,-0.012000,1.004000,192.000000,0.000000,0.000000,0.000000,0.000000,0.000000,0.000000,0.000000,0.000000,0.000000,1770024999.671286,0.000000
252.000000,16927.825442,-4849.412125,-1797.102606,-1894.802081,-2499.662638,-14404.045272,-1376.710996,1337.394278,-1596.026313,-11867.457553,-3790.319418,-3737.703411,986.784814,14298.187411,-511.586727,-5020.134749,0.004000,-0.006000,0.998000,192.000000,0.000000,16.000000,127.500000,104.000000,15.500000,24.000000,0.000000,0.000000,0.000000,1770024999.671303,0.000000
254.000000,16929.323009,-4843.801837,-1801.438844,-1898.087787,-2506.546975,-14403.598237,-1382.947133,1336.656670,-1564.085670,-11841.663640,-3735.065905,-3708.847309,1019.440713,14331.022123,-492.185413,-4990.697502,0.004000,-0.006000,0.998000,192.000000,0.000000,0.000000,0.000000,0.000000,0.000000,0.000000,0.000000,0.000000,0.000000,1770024999.671319,0.000000
0.000000,16927.713684,-4847.601634,-1813.218214,-1909.710695,-2520.092132,-14414.707054,-1398.682761,1321.256318,-1590.728949,-11856.348736,-3788.173650,-3736.786990,984.840212,14304.870582,-519.096913,-5012.646915,0.004000,-0.006000,0.998000,192.000000,0.000000,0.000000,0.000000,0.000000,0.000000,0.000000,0.000000,0.000000,0.000000,1770024999.671337,0.000000
2.000000,16940.789454,-4836.828093,-1795.068597,-1885.950790,-2497.405111,-14400.647807,-1372.933551,1342.579882,-1574.613342,-11848.235053,-3753.014356,-3721.811321,1008.957745,14320.695617,-501.528442,-4990.026950,0.004000,-0.006000,0.998000,192.000000,0.000000,0.000000,0.000000,0.000000,0.000000,0.000000,0.000000,0.000000,0.000000,1770024999.671355,0.000000
4.000000,16925.880841,-4851.356727,-1812.078275,-1909.107197,-2523.131969,-14422.530165,-1398.459244,1324.117342,-1573.898086,-11847.743314,-3760.390432,-3720.559623,1006.096721,14318.594553,-508.323372,-4996.017217,0.004000,-0.006000,0.998000,192.000000,0.000000,0.000000,0.000000,0.000000,0.000000,0.000000,0.000000,0.000000,0.000000,1770024999.671372,0.000000
6.000000,16932.452253,-4838.616233,-1792.341684,-1888.632999,-2498.030960,-14401.184249,-1371.950075,1343.675118,-1585.029255,-11855.208797,-3779.747043,-3729.455618,993.915021,14306.681074,-519.275727,-5010.925831,0.002000,-0.008000,1.002000,192.000000,0.000000,8.000000,127.500000,96.000000,15.500000,40.000000,0.000000,0.000000,0.000000,1770024999.671389,0.000000
8.000000,16930.954687,-4836.939852,-1798.555469,-1893.930363,-2503.060103,-14399.843144,-1377.627418,1339.897673,-1558.520086,-11838.333230,-3734.998850,-3704.600478,1025.408629,14335.559527,-491.134881,-4979.365168,0.002000,-0.008000,1.002000,192.000000,0.000000,0.000000,0.000000,0.000000,0.000000,0.000000,0.000000,0.000000,0.000000,1770024999.671408,0.000000
10.000000,16923.779777,-4858.308120,-1811.005391,-1911.476482,-2524.115446,-14422.843089,-1392.893659,1329.168836,-1591.175984,-11862.897797,-3787.994836,-3734.216539,989.087044,14301.204896,-517.152311,-5010.411741,0.002000,-0.008000,1.002000,192.000000,0.000000,0.000000,0.000000,0.000000,0.000000,0.000000,0.000000,0.000000,0.000000,1770024999.671425,0.000000
12.000000,16939.604812,-4851.066154,-1795.627391,-1891.181098,-2511.598469,-14417.769243,-1364.886923,1349.508923,-1569.986531,-11852.347774,-3745.504170,-3714.994039,1006.968439,14311.039664,-500.768483,-4998.833537,0.002000,-0.008000,1.002000,192.000000,0.000000,0.000000,0.000000,0.000000,0.000000,0.000000,0.000000,0.000000,0.000000,1770024999.671442,0.000000
14.000000,16921.991637,-4863.292559,-1819.879034,-1918.427875,-2541.594510,-14448.212319,-1392.200755,1319.669344,-1580.290685,-11861.377878,-3761.932702,-3726.080504,990.674018,14296.533382,-513.687791,-5011.931659,0.002000,-0.008000,1.002000,192.000000,0.000000,0.000000,0.000000,0.000000,0.000000,0.000000,0.000000,0.000000,0.000000,1770024999.671459,0.000000
16.000000,16925.187936,-4848.562759,-1804.724551,-1897.596049,-2516.739370,-14424.541822,-1371.413633,1336.611967,-1602.910650,-11872.620806,-3796.823775,-3738.195150,973.016140,14283.547018,-526.696506,-5029.723648,0.002000,-0.012000,1.004000,192.000000,0.000000,8.000000,127.500000,80.000000,15.500000,48.000000,0.000000,0.000000,0.000000,1770024999.671473,0.000000
18.000000,16917.901268,-4863.694890,-1807.227946,-1905.597974,-2523.757818,-14428.274563,-1377.605066,1329.347650,-1569.025406,-11847.989183,-3745.839446,-3710.322524,1002.095759,14318.348684,-498.510957,-5000.711083,0.002000,-0.012000,1.004000,192.000000,0.000000,0.000000,0.000000,0.000000,0.000000,0.000000,0.000000,0.000000,0.000000,1770024999.671494,0.000000
20.000000,16911.396910,-4865.326567,-1818.783798,-1918.606689,-2537.392382,-14435.717694,-1391.463148,1318.104722,-1607.649220,-11882.030890,-3802.814043,-3750.510961,969.171640,14284.262274,-527.143541,-5029.030744,0.002000,-0.012000,1.004000,192.000000,0.000000,0.000000,0.000000,0.000000,0.000000,0.000000,0.000000,0.000000,0.000000,1770024999.671511,0.000000
22.000000,16938.844852,-4838.839750,-1797.415530,-1888.767110,-2513.386609,-14410.773147,-1363.612874,1345.150333,-1576.289722,-11854.560596,-3755.651862,-3721.990135,1000.933468,14312.380768,-509.060980,-5003.169775,0.002000,-0.012000,1.004000,192.000000,0.000000,0.000000,0.000000,0.000000,0.000000,0.000000,0.000000,0.000000,0.000000,1770024999.671527,0.000000
24.000000,16899.975169,-4869.394585,-1824.327031,-1916.796198,-2544.455534,-14431.493215,-1392.670142,1314.975478,-1582.458804,-11859.768553,-3767.721804,-3725.007620,988.282381,14312.179603,-515.565338,-4999.839365,0.002000,-0.012000,1.004000,192.000000,0.000000,0.000000,0.000000,0.000000,0.000000,0.000000,0.000000,0.000000,0.000000,1770024999.671545,0.000000
26.000000,16920.091739,-4858.777506,-1807.049132,-1897.707808,-2523.489597,-14412.918915,-1372.017130,1335.248510,-1607.425703,-11876.487658,-3795.348560,-3746.711164,968.188163,14287.168001,-532.686774,-5013.540985,0.002000,-0.012000,1.004000,192.000000,0.000000,0.000000,127.500000,88.000000,15.500000,32.000000,0.000000,0.000000,0.000000,1770024999.671561,0.000000
28.000000,16933.480434,-4850.887340,-1807.004429,-1901.664067,-2522.394362,-14416.763415,-1379.259095,1335.650842,-1571.327635,-11845.865768,-3743.313699,-3708.869661,1007.951916,14321.165004,-505.484701,-4988.529383,0.002000,-0.012000,1.004000,192.000000,0.000000,0.000000,0.000000,0.000000,0.000000,0.000000,0.000000,0.000000,0.000000,1770024999.671577,0.000000
30.000000,16924.942067,-4852.474314,-1815.721609,-1912.616421,-2537.302975,-14429.123930,-1390.747892,1322.820940,-1592.315923,-11865.088268,-3795.460319,-3740.810304,981.263933,14295.102870,-531.077448,-5019.441845,0.002000,-0.012000,1.004000,192.000000,0.000000,0.000000,0.000000,0.000000,0.000000,0.000000,0.000000,0.000000,0.000000,1770024999.671595,0.000000
32.000000,16935.559146,-4851.356727,-1799.673057,-1890.398787,-2514.258327,-14415.064682,-1363.098784,1343.876284,-1578.167269,-11851.990146,-3756.657691,-3716.536309,994.451463,14313.163079,-512.726666,-5004.443825,0.002000,-0.012000,1.004000,192.000000,0.000000,0.000000,0.000000,0.000000,0.000000,0.000000,0.000000,0.000000,0.000000,1770024999.671612,0.000000
34.000000,16910.681654,-4875.831887,-1826.539853,-1924.865177,-2541.348641,-14443.294936,-1394.234764,1312.896766,-1589.186679,-11864.149495,-3769.487592,-3729.768542,984.683750,14303.462422,-515.922966,-5010.188223,0.002000,-0.012000,1.004000,192.000000,0.000000,0.000000,0.000000,0.000000,0.000000,0.000000,0.000000,0.000000,0.000000,1770024999.671628,0.000000
36.000000,16930.753521,-4853.234274,-1811.072446,-1906.939078,-2518.371048,-14424.295953,-1375.146374,1328.498283,-1604.765845,-11881.762669,-3804.110444,-3752.813191,967.048224,14282.071803,-528.529349,-5027.108494,0.002000,-0.012000,1.004000,192.000000,0.000000,0.000000,127.500000,72.000000,15.500000,24.000000,0.000000,0.000000,0.000000,1770024999.671645,0.000000
38.000000,16931.804053,-4856.050593,-1815.609850,-1909.956564,-2525.769475,-14432.163767,-1383.215354,1325.324336,-1572.154650,-11853.130085,-3752.366156,-3720.313754,1002.073407,14315.711178,-502.958954,-5001.448691,0.002000,-0.012000,1.004000,192.000000,0.000000,0.000000,0.000000,0.000000,0.000000,0.000000,0.000000,0.000000,0.000000,1770024999.671662,0.000000
40.000000,16902.657378,-4869.282826,-1825.444618,-1919.567814,-2548.232978,-14447.273546,-1394.011246,1315.467216,-1608.342124,-11878.655777,-3807.932592,-3748.298138,969.193991,14287.592684,-535.547797,-5034.171645,0.002000,-0.012000,1.004000,192.000000,0.000000,0.000000,0.000000,0.000000,0.000000,0.000000,0.000000,0.000000,0.000000,1770024999.671679,0.000000
42.000000,16927.199593,-4850.797933,-1801.237679,-1893.662142,-2517.901661,-14422.776034,-1363.098784,1342.155199,-1586.772691,-11862.406059,-3764.078470,-3728.449789,987.634181,14301.830745,-518.783989,-5017.877223,0.002000,-0.012000,1.004000,192.000000,0.000000,0.000000,0.000000,0.000000,0.000000,0.000000,0.000000,0.000000,0.000000,1770025000.151216,0.000000
44.000000,16909.385253,-4882.403300,-1822.673002,-1926.049820,-2539.158170,-14442.020886,-1396.559345,1311.689772,-1587.644409,-11867.614015,-3770.448717,-3731.936661,986.673055,14299.148536,-516.682925,-5014.122130,0.002000,-0.012000,1.004000,192.000000,0.000000,0.000000,0.000000,0.000000,0.000000,0.000000,0.000000,0.000000,0.000000,1770025000.151286,0.000000
46.000000,16932.943992,-4853.927178,-1803.003466,-1904.994476,-2517.789902,-14418.618610,-1375.392243,1333.147446,-1600.116682,-11885.987149,-3800.511813,-3752.813191,973.664340,14280.775402,-524.729553,-5021.498206,0.003000,-0.013000,1.004000,192.000000,0.000000,16.000000,127.500000,72.000000,15.500000,48.000000,0.000000,0.000000,0.000000,1770025000.151340,0.000000
48.000000,16939.336591,-4843.555968,-1805.082179,-1900.993514,-2522.349658,-14422.619572,-1376.219258,1335.092048,-1562.565751,-11851.431352,-3743.581920,-3717.408027,1010.231794,14317.208745,-497.505128,-4990.898668,0.003000,-0.013000,1.004000,192.000000,0.000000,0.000000,0.000000,0.000000,0.000000,0.000000,0.000000,0.000000,0.000000,1770025000.151392,0.000000
50.000000,16907.395948,-4870.221599,-1822.293022,-1917.980840,-2542.108600,-14441.663258,-1392.379569,1314.617850,-1600.273144,-11875.548884,-3803.328133,-3743.581920,973.798451,14287.503277,-526.897672,-5021.699372,0.003000,-0.013000,1.004000,192.000000,0.000000,0.000000,0.000000,0.000000,0.000000,0.000000,0.000000,0.000000,0.000000,1770025000.151455,0.000000
52.000000,16933.256916,-4843.667727,-1796.521461,-1891.605782,-2509.542109,-14413.142432,-1361.735327,1341.149371,-1586.012731,-11865.580006,-3765.330167,-3729.455618,995.636105,14304.758823,-505.618811,-5002.141595,0.003000,-0.013000,1.004000,192.000000,0.000000,0.000000,0.000000,0.000000,0.000000,0.000000,0.000000,0.000000,0.000000,1770025000.151513,0.000000
54.000000,16907.887686,-4876.502440,-1824.170568,-1926.608613,-2534.330193,-14440.635078,-1395.486462,1310.438074,-1583.531688,-11863.724812,-3771.476897,-3729.366211,998.117149,14301.696634,-507.116378,-5004.466177,0.003000,-0.013000,1.004000,192.000000,0.000000,0.000000,0.000000,0.000000,0.000000,0.000000,0.000000,0.000000,0.000000,1770025000.151540,0.000000
56.000000,16930.865280,-4861.146791,-1810.021914,-1907.341410,-2521.723809,-14422.910145,-1376.800403,1328.386525,-1608.856214,-11887.417661,-3808.871366,-3758.378775,969.819840,14277.780268,-523.455503,-5022.749904,0.002500,-0.013500,1.006000,192.000000,0.000000,8.000000,127.500000,72.000000,15.500000,64.000000,0.000000,0.000000,0.000000,1770025000.151558,0.000000
58.000000,16930.954687,-4856.721146,-1811.295964,-1907.341410,-2528.809312,-14434.130720,-1379.169688,1333.326260,-1567.393728,-11853.487713,-3753.796667,-3719.240870,1004.688562,14314.034797,-502.333105,-5000.532270,0.002500,-0.013500,1.006000,192.000000,0.000000,0.000000,0.000000,0.000000,0.000000,0.000000,0.000000,0.000000,0.000000,1770025000.151575,0.000000
60.000000,16907.060672,-4877.620027,-1823.611775,-1924.418142,-2546.623653,-14455.476636,-1391.418444,1319.289365,-1610.398485,-11884.936617,-3808.156110,-3749.125153,965.550657,14271.946463,-533.647899,-5039.200787,0.002500,-0.013500,1.006000,192.000000,0.000000,0.000000,0.000000,0.000000,0.000000,0.000000,0.000000,0.000000,0.000000,1770025000.151593,0.000000
62.000000,16936.989658,-4848.898035,-1798.287248,-1896.031427,-2512.760760,-14423.290124,-1362.048252,1346.245569,-1582.481156,-11868.619844,-3762.446792,-3730.394391,991.858660,14293.471193,-512.279631,-5017.497244,0.002500,-0.013500,1.006000,192.000000,0.000000,0.000000,0.000000,0.000000,0.000000,0.000000,0.000000,0.000000,0.000000,1770025000.151610,0.000000
64.000000,16921.768120,-4871.093317,-1820.817807,-1921.534767,-2538.420563,-14439.763360,-1393.295991,1317.612984,-1582.123528,-11866.407021,-3768.168839,-3733.993022,995.725512,14298.746204,-514.134826,-5011.886956,0.002500,-0.013500,1.006000,192.000000,0.000000,0.000000,0.000000,0.000000,0.000000,0.000000,0.000000,0.000000,0.000000,1770025000.151627,0.000000
66.000000,16928.898326,-4857.369346,-1804.053998,-1896.031427,-2520.092132,-14419.669142,-1374.095842,1336.902539,-1598.015618,-11881.807373,-3801.025903,-3747.918159,978.514669,14285.402213,-528.216425,-5024.582747,0.000250,-0.014750,1.007000,192.000000,127.500000,120.000000,127.500000,64.000000,15.500000,64.000000,0.000000,0.000000,0.000000,1770025000.151644,0.000000
68.000000,16932.832233,-4852.295500,-1808.256126,-1899.585354,-2528.317574,-14429.481558,-1372.262999,1336.924891,-1566.656121,-11849.956137,-3750.198036,-3712.937678,1009.941221,14320.695617,-504.300058,-4997.715950,0.000250,-0.014750,1.007000,192.000000,0.000000,0.000000,0.000000,0.000000,0.000000,0.000000,0.000000,0.000000,0.000000,1770025000.151663,0.000000
70.000000,16913.676788,-4878.491745,-1823.231795,-1923.971107,-2553.597397,-14449.016982,-1386.344598,1318.238833,-1604.139996,-11885.294245,-3801.919973,-3750.063926,966.578837,14280.194256,-538.677041,-5035.266880,0.000250,-0.014750,1.007000,192.000000,0.000000,0.000000,0.000000,0.000000,0.000000,0.000000,0.000000,0.000000,0.000000,1770025000.151681,0.000000
72.000000,16939.649515,-4840.784352,-1799.293077,-1894.176232,-2522.126141,-14419.937363,-1359.343691,1345.776182,-1583.196412,-11870.318576,-3763.430269,-3733.635394,988.483547,14299.863791,-521.555605,-5014.211537,0.000250,-0.014750,1.007000,192.000000,0.000000,0.000000,0.000000,0.000000,0.000000,0.000000,0.000000,0.000000,0.000000,1770025000.151697,0.000000
74.000000,16924.271515,-4861.727936,-1817.755618,-1915.455093,-2537.258272,-14438.131683,-1388.758586,1325.726667,-1577.452013,-11862.070782,-3766.358348,-3728.360382,993.713855,14309.787966,-511.899652,-5004.399121,0.000250,-0.014750,1.007000,192.000000,0.000000,0.000000,0.000000,0.000000,0.000000,0.000000,0.000000,0.000000,0.000000,1770025000.151714,0.000000
76.000000,16944.119864,-4823.573509,-1801.550603,-1897.260773,-2519.890966,-14429.280392,-1370.161935,1344.971519,-1585.655103,-11873.872504,-3792.241668,-3744.207769,983.454404,14289.671396,-523.276689,-5024.739209,-0.001875,-0.017375,1.005500,192.000000,127.500000,112.000000,127.500000,48.000000,15.500000,48.000000,0.000000,0.000000,0.000000,1770025000.151731,0.000000
78.000000,16954.334611,-4850.462657,-1800.723589,-1900.524128,-2522.148493,-14436.969392,-1369.625493,1345.820885,-1552.216894,-11850.269061,-3743.246644,-3711.373056,1007.638992,14312.157251,-505.060018,-5010.635258,-0.001875,-0.017375,1.005500,192.000000,0.000000,0.000000,0.000000,0.000000,0.000000,0.000000,0.000000,0.000000,0.000000,1770025000.151749,0.000000
80.000000,16925.970248,-4863.806649,-1814.089932,-1918.494930,-2545.573121,-14451.430971,-1383.707092,1328.475932,-1588.672589,-11879.616902,-3793.985104,-3742.911368,978.917000,14281.200085,-533.133809,-5043.380564,-0.001875,-0.017375,1.005500,192.000000,0.000000,0.000000,0.000000,0.000000,0.000000,0.000000,0.000000,0.000000,0.000000,1770025000.151765,0.000000
82.000000,16945.505672,-4847.981614,-1798.331952,-1895.159709,-2517.253461,-14428.296915,-1360.662444,1346.893769,-1570.590028,-11864.909454,-3753.841371,-3728.226272,998.497128,14298.768556,-516.951146,-5024.493340,-0.001875,-0.017375,1.005500,192.000000,0.000000,0.000000,0.000000,0.000000,0.000000,0.000000,0.000000,0.000000,0.000000,1770025000.151786,0.000000
84.000000,16918.504765,-4875.518963,-1827.568034,-1923.278203,-2546.847170,-14450.268680,-1394.458281,1316.383638,-1576.379129,-11872.352585,-3766.179534,-3736.764638,994.384407,14293.471193,-518.024029,-5020.872357,-0.001875,-0.017375,1.005500,192.000000,0.000000,0.000000,0.000000,0.000000,0.000000,0.000000,0.000000,0.000000,0.000000,1770025000.151803,0.000000
86.000000,16944.969230,-4845.657032,-1807.742036,-1900.077093,-2527.870539,-14424.586526,-1374.006435,1338.355403,-1589.097272,-11885.070727,-3799.170709,-3750.712127,977.642951,14280.708346,-536.531274,-5030.617718,-0.001875,-0.017375,1.005500,192.000000,0.000000,0.000000,127.500000,64.000000,15.500000,48.000000,0.000000,0.000000,0.000000,1770025000.151819,0.000000
88.000000,16951.138312,-4845.075887,-1803.249336,-1903.318096,-2516.493501,-14419.624438,-1372.464165,1337.483685,-1557.201333,-11857.399268,-3743.067830,-3722.615984,1005.314410,14314.906515,-505.462349,-4999.548793,-0.001875,-0.017375,1.005500,192.000000,0.000000,0.000000,0.000000,0.000000,0.000000,0.000000,0.000000,0.000000,0.000000,1770025000.151850,0.000000
90.000000,16944.365733,-4851.200265,-1814.425208,-1915.477445,-2525.613013,-14429.995648,-1389.116214,1321.770408,-1581.229458,-11876.644120,-3793.761586,-3749.773353,985.399006,14285.446916,-523.455503,-5027.577880,-0.001875,-0.017375,1.005500,192.000000,0.000000,0.000000,0.000000,0.000000,0.000000,0.000000,0.000000,0.000000,0.000000,1770025000.151868,0.000000
92.000000,16962.828274,-4818.454959,-1793.906306,-1884.095595,-2497.941553,-14402.279485,-1361.556513,1348.257226,-1556.307263,-11848.592681,-3754.780144,-3725.007620,1008.376599,14313.051321,-501.751960,-5003.862679,-0.001875,-0.017375,1.005500,192.000000,0.000000,0.000000,0.000000,0.000000,0.000000,0.000000,0.000000,0.000000,0.000000,1770025000.151885,0.000000
