Sample_index,EXG Channel 0,EXG Channel 1,EXG Channel 2,EXG Channel 3,EXG Channel 4,EXG Channel 5,EXG Channel 6,EXG Channel 7,EXG Channel 8,EXG Channel 9,EXG Channel 10,EXG Channel 11,EXG Channel 12,EXG Channel 13,EXG Channel 14,EXG Channel 15,Accel Channel 0,Accel Channel 1,Accel Channel 2,Not Used,Digital Channel 0 (D11),Digital Channel 1 (D12),Digital Channel 2 (D13),Digital Channel 3 (D17),Not Used,Digital Channel 4 (D18),Analog Channel 0,Analog Channel 1,Analog Channel 2,Timestamp,Marker Channel
90.000000,15209.177459,8504.414082,4414.134254,6046.973890,4810.095407,4434.675507,-18506.529153,-20344.982486,-11307.769872,436.283700,3017.306688,18686.326586,7557.795353,15233.764378,8703.232849,-4613.288297,0.006000,-0.014000,1.004000,192.000000,0.000000,0.000000,0.000000,0.000000,0.000000,0.000000,0.000000,0.000000,0.000000,1771320639.300647,101.000000
92.000000,15501.448870,8819.461920,4719.280269,6353.125734,5119.532957,4748.762220,-18199.304426,-20039.009457,-10894.106137,858.776374,3431.372754,19107.366396,7975.325939,15651.496130,9133.146302,-4197.791719,0.006000,-0.014000,1.004000,192.000000,0.000000,0.000000,0.000000,0.000000,0.000000,0.000000,0.000000,0.000000,0.000000,1771320639.300705,0.000000
94.000000,15096.614074,8404.904116,4316.770055,5947.665089,4713.222946,4350.811762,-18598.707747,-20446.705275,-11080.653796,661.321063,3251.441211,18916.706016,7795.684969,15481.108782,8953.393573,-4375.041053,0.004000,-0.012000,1.000000,192.000000,0.000000,16.000000,127.500000,80.000000,15.500000,32.000000,0.000000,0.000000,0.000000,1771320639.300746,0.000000
96.000000,15493.022262,8790.829336,4700.236583,6334.976117,5088.821660,4729.115037,-18215.934124,-20059.148378,-11119.791701,617.869272,3198.981666,18863.911195,7742.107837,15425.765863,8889.087604,-4423.991373,0.004000,-0.012000,1.000000,192.000000,0.000000,0.000000,0.000000,0.000000,0.000000,0.000000,0.000000,0.000000,0.000000,1771320639.300787,0.000000
98.000000,15277.417335,8568.094202,4482.240019,6109.670533,4868.120535,4497.394502,-18436.679952,-20273.792180,-10868.178113,872.343883,3459.312434,19131.975667,8000.069320,15670.092782,9181.917808,-4174.188277,0.004000,-0.012000,1.000000,192.000000,0.000000,0.000000,0.000000,0.000000,0.000000,0.000000,0.000000,0.000000,0.000000,1771320639.300828,0.000000
100.000000,15242.883890,8541.428571,4451.506370,6078.936884,4841.410201,4467.130240,-18472.465095,-20310.627855,-11252.896339,477.567372,3076.516459,18731.924144,7605.784548,15286.335681,8741.767256,-4564.762660,0.004000,-0.012000,1.000000,192.000000,0.000000,0.000000,0.000000,0.000000,0.000000,0.000000,0.000000,0.000000,0.000000,1771320639.300852,0.000000
102.000000,15500.800669,8802.496946,4702.404702,6337.166588,5102.366817,4725.091723,-18214.570667,-20056.935556,-10887.042986,848.829847,3435.261957,19095.564675,7974.476573,15649.998564,9146.624404,-4198.685789,0.004000,-0.012000,1.000000,192.000000,0.000000,0.000000,0.000000,0.000000,0.000000,0.000000,0.000000,0.000000,0.000000,1771320639.300879,0.000000
104.000000,15119.524612,8413.889517,4323.475578,5961.031432,4722.342458,4346.497875,-18588.694166,-20431.416682,-11089.214514,641.584473,3231.771676,18898.176420,7776.797745,15439.132206,8937.881462,-4394.352960,-0.002000,-0.010000,0.998000,192.000000,127.500000,120.000000,127.500000,88.000000,15.500000,24.000000,0.000000,0.000000,0.000000,1771320639.300891,0.000000
106.000000,15515.843393,8811.951734,4724.510577,6359.071298,5118.728294,4752.852589,-18192.733013,-20032.460395,-11102.782023,638.634043,3228.664783,18896.701204,7768.125268,15442.708485,8914.166261,-4395.895230,-0.002000,-0.010000,0.998000,192.000000,0.000000,0.000000,0.000000,0.000000,0.000000,0.000000,0.000000,0.000000,0.000000,1771320639.300908,0.000000
108.000000,15276.389155,8571.715185,4477.792022,6104.440225,4871.942684,4497.975647,-18444.123083,-20277.837846,-10848.866206,893.801557,3484.480498,19151.712257,8016.631963,15696.356082,9211.958553,-4151.165980,-0.002000,-0.010000,0.998000,192.000000,0.000000,0.000000,0.000000,0.000000,0.000000,0.000000,0.000000,0.000000,0.000000,1771320639.300920,0.000000
110.000000,15210.742081,8508.504451,4425.623050,6047.018593,4822.567680,4446.052545,-18503.221095,-20339.528661,-11274.711642,456.020290,3045.648699,18705.683196,7585.980902,15257.703097,8728.177396,-4595.138680,-0.002000,-0.010000,0.998000,192.000000,0.000000,0.000000,0.000000,0.000000,0.000000,0.000000,0.000000,0.000000,0.000000,1771320639.300932,0.000000
112.000000,15454.376096,8754.597158,4665.367861,6290.004407,5062.178381,4690.245353,-18260.481150,-20095.648777,-10930.673591,802.047646,3390.022026,19050.436503,7936.769180,15607.038511,9112.806214,-4244.037478,-0.002000,-0.010000,0.998000,192.000000,0.000000,0.000000,0.000000,0.000000,0.000000,0.000000,0.000000,0.000000,0.000000,1771320639.300944,0.000000
114.000000,15069.702574,8382.127688,4276.782784,5909.041275,4670.978149,4303.515470,-18642.159539,-20477.595386,-11120.104625,613.555385,3200.859213,18871.644899,7743.314832,15432.650200,8901.425767,-4430.026344,-0.002000,-0.010000,0.998000,192.000000,0.000000,0.000000,127.500000,88.000000,15.500000,40.000000,0.000000,0.000000,0.000000,1771320639.300956,0.000000
116.000000,15458.913500,8765.281292,4663.870295,6299.123919,5057.126887,4697.688484,-18254.267365,-20093.771230,-11147.329050,586.554478,3168.873867,18834.451596,7712.178852,15399.502563,8852.676612,-4455.909664,-0.002000,-0.010000,0.998000,192.000000,0.000000,0.000000,0.000000,0.000000,0.000000,0.000000,0.000000,0.000000,0.000000,1771320639.300968,0.000000
118.000000,15240.134625,8546.681231,4451.059336,6084.725986,4847.802800,4475.758013,-18466.363068,-20305.978692,-10889.814602,851.757926,3435.172550,19100.236189,7970.207390,15658.425171,9160.258968,-4189.432167,-0.002000,-0.010000,0.998000,192.000000,0.000000,0.000000,0.000000,0.000000,0.000000,0.000000,0.000000,0.000000,0.000000,1771320639.300980,0.000000
120.000000,15240.961640,8526.922289,4443.906777,6071.650216,4838.571529,4467.845496,-18481.495199,-20321.714320,-11287.273322,451.058203,3034.204606,18693.903827,7578.805992,15240.581660,8713.581707,-4594.177555,-0.002000,-0.010000,0.998000,192.000000,0.000000,0.000000,0.000000,0.000000,0.000000,0.000000,0.000000,0.000000,0.000000,1771320639.300992,0.000000
122.000000,15452.386791,8734.033553,4657.991786,6287.657474,5051.896578,4686.981998,-18265.487941,-20107.942236,-10911.316980,816.486873,3409.445692,19070.933052,7954.717631,15623.489395,9135.225014,-4212.879147,-0.002000,-0.010000,0.998000,192.000000,0.000000,0.000000,0.000000,0.000000,0.000000,0.000000,0.000000,0.000000,0.000000,1771320639.301004,0.000000
124.000000,15076.430449,8384.407566,4293.144261,5919.501891,4687.160812,4325.062552,-18630.380169,-20470.666345,-11123.680904,612.862481,3204.591954,18864.604099,7752.143771,15420.580258,8904.487956,-4422.314992,-0.002000,-0.010000,0.998000,192.000000,0.000000,0.000000,127.500000,88.000000,15.500000,48.000000,0.000000,0.000000,0.000000,1771320639.301016,0.000000
126.000000,15474.313852,8762.174399,4684.925638,6304.510689,5077.534029,4709.154929,-18243.180900,-20085.411678,-11151.017088,586.643885,3177.188716,18834.988038,7722.013619,15391.277121,8872.569665,-4445.471399,-0.002000,-0.010000,0.998000,192.000000,0.000000,0.000000,0.000000,0.000000,0.000000,0.000000,0.000000,0.000000,0.000000,1771320639.301028,0.000000
128.000000,15273.639890,8568.317719,4486.665665,6101.959181,4880.011663,4501.596630,-18439.362161,-20280.877683,-10870.502695,852.987272,3456.294949,19109.355701,7997.543573,15670.293947,9181.917808,-4179.955027,-0.002000,-0.010000,0.998000,192.000000,0.000000,0.000000,0.000000,0.000000,0.000000,0.000000,0.000000,0.000000,0.000000,1771320639.301040,0.000000
130.000000,15257.166655,8554.906673,4469.007786,6086.245905,4863.381966,4489.817260,-18461.266871,-20301.597750,-11255.064458,472.001788,3075.041243,18727.453795,7618.703856,15287.319158,8751.065582,-4561.074622,-0.002000,-0.010000,0.998000,192.000000,0.000000,0.000000,0.000000,0.000000,0.000000,0.000000,0.000000,0.000000,0.000000,1771320639.301052,0.000000
132.000000,15463.517960,8769.394013,4659.891684,6284.863506,5060.010262,4687.116109,-18266.493769,-20103.941274,-10889.144050,839.084487,3431.842140,19086.758087,7978.902218,15646.869319,9148.367840,-4203.312600,-0.002000,-0.010000,0.998000,192.000000,0.000000,0.000000,0.000000,0.000000,0.000000,0.000000,0.000000,0.000000,0.000000,1771320639.301064,0.000000
134.000000,15077.771554,8374.572799,4276.380453,5906.582583,4672.296902,4302.017904,-18644.260603,-20483.295081,-11135.795550,601.418388,3189.459823,18849.762541,7730.842558,15403.436470,8886.405395,-4445.292586,-0.002000,-0.010000,0.998000,192.000000,0.000000,0.000000,127.500000,96.000000,15.500000,48.000000,0.000000,0.000000,0.000000,1771320639.301077,0.000000
136.000000,15488.954245,8786.247228,4677.482507,6307.662285,5073.287198,4702.158833,-18245.930165,-20082.796524,-11142.210501,598.847937,3177.054605,18845.135730,7719.621983,15392.461764,8852.676612,-4460.581179,-0.002000,-0.010000,0.998000,192.000000,0.000000,0.000000,0.000000,0.000000,0.000000,0.000000,0.000000,0.000000,0.000000,1771320639.301089,0.000000
138.000000,15290.962492,8579.538295,4477.970836,6107.256545,4877.687082,4500.814319,-18442.983144,-20281.525884,-10860.712631,867.068871,3455.602045,19119.615152,7999.845803,15670.070430,9175.681672,-4179.910324,-0.002000,-0.010000,0.998000,192.000000,0.000000,0.000000,0.000000,0.000000,0.000000,0.000000,0.000000,0.000000,0.000000,1771320639.301101,0.000000
140.000000,15264.788600,8556.672461,4467.845496,6098.807585,4861.862047,4490.398406,-18455.164844,-20297.037995,-11250.169426,478.014407,3068.939217,18729.666618,7613.674714,15289.867257,8741.588443,-4559.577055,-0.002000,-0.010000,0.998000,192.000000,0.000000,0.000000,0.000000,0.000000,0.000000,0.000000,0.000000,0.000000,0.000000,1771320639.301113,0.000000
142.000000,15509.093166,8798.808908,4699.320161,6336.317222,5095.191907,4725.695220,-18221.075025,-20061.942346,-10875.285968,858.351691,3444.247358,19108.059300,7994.213163,15661.710878,9155.006308,-4179.396233,-0.002000,-0.010000,0.998000,192.000000,0.000000,0.000000,0.000000,0.000000,0.000000,0.000000,0.000000,0.000000,0.000000,1771320639.301125,0.000000
144.000000,15112.975551,8413.196613,4316.479482,5941.384249,4713.893499,4340.574663,-18608.766032,-20448.582822,-11076.138744,652.268607,3240.667670,18908.927609,7787.034844,15457.550044,8937.434427,-4386.283980,-0.002000,-0.010000,0.999000,192.000000,127.500000,120.000000,127.500000,88.000000,15.500000,32.000000,0.000000,0.000000,0.000000,1771320639.301136,0.000000
146.000000,15494.475126,8802.720464,4695.118033,6315.373637,5089.738082,4720.867243,-18234.575478,-20072.201797,-11132.532195,605.642868,3192.387902,18851.818902,7738.352744,15407.236267,8883.566723,-4430.003992,-0.002000,-0.010000,0.999000,192.000000,0.000000,0.000000,0.000000,0.000000,0.000000,0.000000,0.000000,0.000000,0.000000,1771320639.301148,0.000000
148.000000,15308.776833,8613.937630,4503.965915,6126.434341,4899.502385,4525.021258,-18421.614876,-20257.341296,-10844.149988,888.370083,3475.629208,19132.176832,8022.756341,15701.519334,9195.775890,-4155.099887,-0.002000,-0.010000,0.999000,192.000000,0.000000,0.000000,0.000000,0.000000,0.000000,0.000000,0.000000,0.000000,0.000000,1771320639.301160,0.000000
150.000000,15241.475730,8524.865928,4440.866940,6072.678396,4829.899052,4467.957254,-18482.456324,-20319.903829,-11244.402676,488.296209,3076.181182,18738.719075,7618.212118,15292.147135,8755.066544,-4552.156276,-0.002000,-0.010000,0.999000,192.000000,0.000000,0.000000,0.000000,0.000000,0.000000,0.000000,0.000000,0.000000,0.000000,1771320639.301171,0.000000
152.000000,15466.378983,8750.260919,4663.847943,6294.810032,5057.596273,4693.262839,-18258.268328,-20095.425260,-10922.783425,807.769693,3398.158061,19062.685259,7941.530101,15623.176470,9118.684723,-4223.585632,-0.002000,-0.010000,0.999000,192.000000,0.000000,0.000000,0.000000,0.000000,0.000000,0.000000,0.000000,0.000000,0.000000,1771320639.301183,0.000000
154.000000,15132.421569,8426.495901,4331.701020,5955.644662,4729.606775,4355.662090,-18596.852553,-20431.908421,-11099.138689,627.011135,3221.579280,18885.234759,7766.225370,15440.450959,8912.914564,-4410.490919,0.000000,-0.008000,1.000500,192.000000,0.000000,8.000000,127.500000,104.000000,15.500000,40.000000,0.000000,0.000000,0.000000,1771320639.301194,0.000000
156.000000,15486.227332,8776.501867,4681.662283,6303.281343,5083.703111,4707.232679,-18251.361638,-20083.042393,-11090.577971,621.199682,3223.054495,18873.455390,7774.160239,15434.013657,8904.599715,-4412.122597,0.000000,-0.008000,1.000500,192.000000,0.000000,0.000000,0.000000,0.000000,0.000000,0.000000,0.000000,0.000000,0.000000,1771320639.301206,0.000000
158.000000,15294.516420,8582.891057,4478.440223,6114.476158,4887.767719,4512.750150,-18442.178481,-20274.932119,-10869.899198,845.231217,3439.352326,19098.068070,7984.221933,15650.311488,9165.288110,-4195.601248,0.000000,-0.008000,1.000500,192.000000,0.000000,0.000000,0.000000,0.000000,0.000000,0.000000,0.000000,0.000000,0.000000,1771320639.301219,0.000000
160.000000,15228.422311,8528.084579,4422.784379,6064.654120,4823.953488,4456.110830,-18495.777964,-20333.896021,-11259.132476,475.153384,3059.015043,18731.901793,7606.186879,15280.390117,8737.833349,-4564.136811,0.000000,-0.008000,1.000500,192.000000,0.000000,0.000000,0.000000,0.000000,0.000000,0.000000,0.000000,0.000000,0.000000,1771320639.301230,0.000000
162.000000,15477.756021,8783.319149,4671.402832,6302.521384,5059.809096,4693.285190,-18250.221700,-20088.987957,-10916.457882,818.029144,3400.549698,19073.615262,7946.939224,15620.449557,9118.036523,-4219.562318,0.000000,-0.008000,1.000500,192.000000,0.000000,0.000000,0.000000,0.000000,0.000000,0.000000,0.000000,0.000000,0.000000,1771320639.301242,0.000000
164.000000,15085.617016,8371.845886,4281.074319,5903.453339,4667.357167,4296.273505,-18642.248946,-20476.097819,-11121.244564,612.571909,3205.396617,18873.991832,7746.086448,15425.184718,8903.482128,-4428.998164,0.002000,-0.006000,1.003250,192.000000,0.000000,16.000000,127.500000,112.000000,15.500000,56.000000,0.000000,0.000000,0.000000,1771320639.301254,0.000000
166.000000,15473.933872,8767.203542,4673.727414,6285.869334,5056.433982,4684.098623,-18259.698839,-20089.680861,-11138.142483,580.877135,3179.468594,18838.609021,7718.370285,15391.277121,8854.285938,-4456.580216,0.002000,-0.006000,1.003250,192.000000,0.000000,0.000000,0.000000,0.000000,0.000000,0.000000,0.000000,0.000000,0.000000,1771320639.301266,0.000000
168.000000,15293.532943,8588.858973,4479.244885,6110.408140,4872.143849,4502.133072,-18443.474882,-20274.418029,-10887.691186,843.934815,3434.300832,19102.471364,7974.655387,15633.994714,9155.296881,-4210.353400,0.002000,-0.006000,1.003250,192.000000,0.000000,0.000000,0.000000,0.000000,0.000000,0.000000,0.000000,0.000000,0.000000,1771320639.301278,0.000000
170.000000,15265.995594,8568.563589,4466.638501,6094.761919,4855.201227,4481.100080,-18459.411676,-20293.014681,-11237.272470,497.058093,3081.344435,18759.439142,7623.911813,15297.288036,8747.310489,-4552.200979,0.002000,-0.006000,1.003250,192.000000,0.000000,0.000000,0.000000,0.000000,0.000000,0.000000,0.000000,0.000000,0.000000,1771320639.301290,0.000000
172.000000,15505.718053,8796.350216,4701.935315,6327.153006,5092.308532,4714.117016,-18221.455004,-20056.287355,-10881.946788,848.561627,3440.760486,19105.287684,7979.282198,15643.605965,9148.971337,-4195.377731,0.002000,-0.006000,1.003250,192.000000,0.000000,0.000000,0.000000,0.000000,0.000000,0.000000,0.000000,0.000000,0.000000,1771320639.301302,0.000000
174.000000,15135.953145,8433.402590,4341.334622,5963.221903,4731.774894,4357.204361,-18585.386108,-20421.604266,-11056.089229,672.206363,3265.813382,18931.033484,7805.810309,15470.603463,8950.264329,-4369.564875,0.003000,-0.010000,1.002625,192.000000,0.000000,16.000000,127.500000,72.000000,15.500000,40.000000,0.000000,0.000000,0.000000,1771320639.301314,0.000000
176.000000,15470.916387,8784.459088,4676.499030,6298.386311,5071.387299,4697.733187,-18254.446179,-20090.597283,-11141.316431,593.639981,3189.415120,18854.501111,7730.395523,15406.275142,8880.169258,-4440.151684,0.003000,-0.010000,1.002625,192.000000,0.000000,0.000000,0.000000,0.000000,0.000000,0.000000,0.000000,0.000000,0.000000,1771320639.301326,0.000000
178.000000,15303.904152,8597.039711,4507.653953,6134.637431,4909.247745,4525.378886,-18417.144527,-20253.541500,-10863.931282,862.307949,3453.836257,19114.965989,7999.845803,15675.568959,9176.531038,-4176.870486,0.003000,-0.010000,1.002625,192.000000,0.000000,0.000000,0.000000,0.000000,0.000000,0.000000,0.000000,0.000000,0.000000,1771320639.301338,0.000000
180.000000,15292.571818,8580.521772,4501.909554,6119.840577,4900.463510,4514.784159,-18428.700379,-20268.785390,-11202.515507,518.515768,3113.329782,18776.761744,7656.612415,15329.027513,8779.362891,-4518.740418,0.003000,-0.010000,1.002625,192.000000,0.000000,0.000000,0.000000,0.000000,0.000000,0.000000,0.000000,0.000000,0.000000,1771320639.301349,0.000000
182.000000,15477.756021,8768.879922,4684.568010,6307.639934,5082.853744,4699.118996,-18242.599755,-20082.215379,-10873.676643,849.835676,3443.085068,19110.026253,7997.364759,15652.703125,9171.524247,-4186.951123,0.003000,-0.010000,1.002625,192.000000,0.000000,0.000000,0.000000,0.000000,0.000000,0.000000,0.000000,0.000000,0.000000,1771320639.301360,0.000000
184.000000,15130.521671,8415.320029,4334.718506,5956.717546,4725.404647,4345.268529,-18589.252959,-20425.828746,-11084.252427,632.330851,3233.671574,18899.450469,7778.742347,15440.272145,8930.728904,-4397.906887,0.003000,-0.010000,1.002625,192.000000,0.000000,0.000000,127.500000,64.000000,15.500000,56.000000,0.000000,0.000000,0.000000,1771320639.301372,0.000000
186.000000,15485.087393,8774.691376,4696.548545,6322.257974,5080.797384,4715.927507,-18226.595906,-20063.954003,-11126.608983,602.245403,3204.971934,18875.399992,7742.264300,15410.678436,8890.160488,-4422.158530,0.003000,-0.010000,1.002625,192.000000,0.000000,0.000000,0.000000,0.000000,0.000000,0.000000,0.000000,0.000000,0.000000,1771320639.301383,0.000000
188.000000,15274.690422,8569.569417,4475.221571,6101.154518,4859.448059,4485.525726,-18444.480711,-20279.111895,-10860.645576,868.544086,3467.627283,19140.983420,8004.606724,15682.162724,9190.567933,-4165.605207,0.003000,-0.010000,1.002625,192.000000,0.000000,0.000000,0.000000,0.000000,0.000000,0.000000,0.000000,0.000000,0.000000,1771320639.301395,0.000000
190.000000,15233.786730,8530.520920,4437.849455,6062.910684,4822.388866,4447.818333,-18485.607920,-20326.676408,-11269.906017,452.421660,3044.933444,18715.987350,7588.417243,15248.002439,8718.208518,-4583.404015,0.003000,-0.010000,1.002625,192.000000,0.000000,0.000000,0.000000,0.000000,0.000000,0.000000,0.000000,0.000000,0.000000,1771320639.301406,0.000000
192.000000,15484.997986,8781.799231,4691.541754,6314.323105,5078.293989,4698.850775,-18234.173147,-20074.526378,-10902.242172,827.573338,3423.303774,19088.166247,7964.194770,15626.752749,9133.369819,-4201.144481,0.003000,-0.010000,1.002625,192.000000,0.000000,0.000000,0.000000,0.000000,0.000000,0.000000,0.000000,0.000000,0.000000,1771320639.301419,0.000000
194.000000,15139.015334,8442.991488,4345.313233,5972.006139,4732.378391,4355.863256,-18577.294776,-20416.530420,-11079.089174,649.474639,3247.060269,18915.677835,7788.554762,15460.768695,8939.803712,-4381.500707,0.003000,-0.010000,1.002625,192.000000,0.000000,0.000000,0.000000,0.000000,0.000000,0.000000,0.000000,0.000000,0.000000,1771320639.301439,0.000000
196.000000,15471.966919,8757.458181,4676.566085,6306.209422,5059.965558,4688.837193,-18248.545319,-20087.468038,-11118.987038,605.151129,3204.144919,18873.500094,7744.432419,15411.572505,8891.568648,-4423.186710,0.003000,-0.010000,1.002625,192.000000,0.000000,0.000000,127.500000,88.000000,15.500000,88.000000,0.000000,0.000000,0.000000,1771320639.301452,0.000000
198.000000,15265.928539,8560.360498,4461.385842,6094.985437,4848.987442,4477.546153,-18460.193987,-20295.339262,-10884.271369,846.728783,3436.938338,19118.922248,7976.465878,15649.953860,9165.377517,-4190.885030,0.003000,-0.010000,1.002625,192.000000,0.000000,0.000000,0.000000,0.000000,0.000000,0.000000,0.000000,0.000000,0.000000,1771320639.301464,0.000000
200.000000,15263.022812,8553.051478,4460.357661,6082.513163,4850.663823,4477.344987,-18468.307670,-20305.151678,-11263.938101,463.061090,3054.321176,18727.520851,7594.496917,15276.813838,8720.510747,-4579.514811,0.003000,-0.010000,1.002625,192.000000,0.000000,0.000000,0.000000,0.000000,0.000000,0.000000,0.000000,0.000000,0.000000,1771320639.301476,0.000000
202.000000,15514.435233,8804.575658,4713.178243,6331.757466,5111.888660,4731.283156,-18215.352978,-20054.029829,-10870.837971,846.795839,3442.794495,19109.378053,7988.491117,15652.211386,9156.481523,-4186.213516,0.003000,-0.010000,1.002625,192.000000,0.000000,0.000000,0.000000,0.000000,0.000000,0.000000,0.000000,0.000000,0.000000,1771320639.301488,0.000000
204.000000,15146.816092,8443.572634,4354.231579,5971.983787,4754.998357,4367.061480,-18574.321994,-20413.088252,-11053.116447,669.434746,3266.215714,18935.190908,7815.488614,15478.270111,8967.452820,-4364.580436,0.003000,-0.010000,1.002625,192.000000,0.000000,0.000000,0.000000,0.000000,0.000000,0.000000,0.000000,0.000000,0.000000,1771320639.301498,0.000000
206.000000,15490.720033,8784.906123,4696.995580,6319.285192,5096.868288,4707.076217,-18231.110958,-20070.368954,-11094.511878,628.441647,3228.217748,18897.014129,7774.719033,15428.649238,8913.473357,-4403.517175,0.003000,-0.010000,1.002625,192.000000,0.000000,0.000000,127.500000,96.000000,15.500000,64.000000,0.000000,0.000000,0.000000,1771320639.301510,0.000000
208.000000,15251.288146,8543.306117,4443.839722,6075.584123,4842.617195,4451.394612,-18476.086077,-20313.868858,-10888.719367,832.177798,3427.215329,19095.587027,7974.096593,15634.888784,9173.915884,-4202.865565,0.003000,-0.010000,1.002625,192.000000,0.000000,0.000000,0.000000,0.000000,0.000000,0.000000,0.000000,0.000000,0.000000,1771320639.301522,0.000000
210.000000,15209.423329,8509.689094,4419.342210,6041.475361,4808.508433,4431.166283,-18504.986883,-20346.748274,-11294.694101,422.336211,3015.093865,18686.661862,7560.388155,15239.464073,8696.415567,-4609.264983,0.003000,-0.010000,1.002625,192.000000,0.000000,0.000000,0.000000,0.000000,0.000000,0.000000,0.000000,0.000000,0.000000,1771320639.781674,0.000000
212.000000,15483.366309,8771.092745,4697.353208,6316.357114,5081.624398,4697.532022,-18230.239240,-20071.978280,-10908.344198,812.664725,3415.480663,19082.645367,7961.087878,15615.286304,9124.227956,-4210.778083,0.003000,-0.010000,1.002625,192.000000,0.000000,0.000000,0.000000,0.000000,0.000000,0.000000,0.000000,0.000000,0.000000,1771320639.781785,0.000000
214.000000,15128.487662,8422.740808,4341.424029,5964.898284,4729.450313,4353.739840,-18582.368622,-20426.387540,-11081.346700,636.532979,3236.242024,18911.810984,7784.620855,15442.976706,8935.668640,-4395.761120,0.003000,-0.010000,1.002625,192.000000,0.000000,0.000000,0.000000,0.000000,0.000000,0.000000,0.000000,0.000000,0.000000,1771320639.781859,0.000000
216.000000,15477.219579,8777.261827,4690.580629,6316.111245,5075.969407,4707.523251,-18237.034170,-20081.701288,-11094.824802,624.664202,3220.551100,18892.342614,7768.996986,15439.512186,8906.767834,-4398.622143,-0.004000,-0.012000,1.004000,192.000000,127.500000,112.000000,127.500000,80.000000,15.500000,48.000000,0.000000,0.000000,0.000000,1771320639.781905,0.000000
218.000000,15274.668071,8565.367289,4487.604438,6111.458672,4874.781355,4496.902763,-18437.462263,-20279.558930,-10885.411308,831.417839,3426.991812,19093.575370,7974.409518,15641.415494,9169.266721,-4195.623600,-0.004000,-0.012000,1.004000,192.000000,0.000000,0.000000,0.000000,0.000000,0.000000,0.000000,0.000000,0.000000,0.000000,1771320639.781971,0.000000
220.000000,15222.409692,8504.637600,4440.129333,6059.714384,4822.947660,4445.896083,-18488.804220,-20329.313914,-11266.396793,456.735546,3061.563142,18726.492670,7606.388045,15262.821646,8737.855701,-4569.188305,-0.004000,-0.012000,1.004000,192.000000,0.000000,0.000000,0.000000,0.000000,0.000000,0.000000,0.000000,0.000000,0.000000,1771320639.782016,0.000000
222.000000,15467.317756,8761.682661,4686.490260,6304.398931,5071.432003,4692.972266,-18243.583231,-20083.221207,-10900.431681,815.078713,3421.225062,19087.428640,7966.362890,15620.650723,9132.051066,-4219.182339,-0.004000,-0.012000,1.004000,192.000000,0.000000,0.000000,0.000000,0.000000,0.000000,0.000000,0.000000,0.000000,0.000000,1771320639.782062,0.000000
224.000000,15110.002769,8398.623276,4316.300668,5941.160731,4703.075254,4330.516378,-18608.676625,-20448.046380,-11090.734433,630.274490,3231.883434,18899.718690,7773.892018,15446.240061,8928.247860,-4408.769835,-0.004000,-0.012000,1.004000,192.000000,0.000000,0.000000,0.000000,0.000000,0.000000,0.000000,0.000000,0.000000,0.000000,1771320639.782131,0.000000
226.000000,15509.920181,8801.647580,4724.220005,6349.482399,5113.363876,4738.614528,-18203.551257,-20042.943364,-11106.760634,608.056856,3204.167271,18873.522445,7745.572358,15424.514165,8873.195514,-4426.986507,-0.004000,-0.010000,1.006000,192.000000,127.500000,112.000000,127.500000,88.000000,15.500000,56.000000,0.000000,0.000000,0.000000,1771320639.782176,0.000000
228.000000,15343.287926,8643.508988,4555.911369,6177.128098,4949.838513,4562.013395,-18372.128114,-20212.079014,-10812.522270,900.663543,3505.558193,19172.655841,8048.796123,15722.172346,9225.034323,-4127.674297,-0.004000,-0.010000,1.006000,192.000000,0.000000,0.000000,0.000000,0.000000,0.000000,0.000000,0.000000,0.000000,0.000000,1771320639.782221,0.000000
230.000000,15245.141416,8522.630754,4461.162324,6082.133184,4860.029204,4476.026234,-18468.061801,-20313.555934,-11208.729292,503.048361,3107.853604,18771.889063,7658.489961,15310.475565,8787.610684,-4522.674325,-0.004000,-0.010000,1.006000,192.000000,0.000000,0.000000,0.000000,0.000000,0.000000,0.000000,0.000000,0.000000,0.000000,1771320639.782267,0.000000
232.000000,15490.272998,8774.289045,4704.326952,6326.437751,5104.736102,4715.949859,-18224.338379,-20066.837378,-10892.630922,814.966955,3417.671134,19082.980643,7972.554323,15630.932526,9142.265814,-4205.413664,-0.004000,-0.010000,1.006000,192.000000,0.000000,0.000000,0.000000,0.000000,0.000000,0.000000,0.000000,0.000000,0.000000,1771320639.782302,0.000000
234.000000,15106.851173,8391.180145,4312.322058,5940.289013,4713.357057,4327.029506,-18614.309265,-20453.299040,-11069.455572,648.267644,3245.249777,18914.381434,7796.735501,15455.717201,8951.851303,-4382.685349,-0.004000,-0.010000,1.006000,192.000000,0.000000,0.000000,0.000000,0.000000,0.000000,0.000000,0.000000,0.000000,0.000000,1771320639.782314,0.000000
236.000000,15447.514111,8734.301774,4655.935425,6277.442727,5050.063735,4668.318292,-18277.356717,-20117.508783,-11143.395143,569.991835,3171.846649,18831.881145,7718.236174,15385.622130,8863.450153,-4451.685184,-0.002000,-0.006000,1.010000,192.000000,127.500000,120.000000,127.500000,104.000000,15.500000,72.000000,0.000000,0.000000,0.000000,1771320639.782326,0.000000
238.000000,15312.241353,8598.514926,4513.979496,6142.706411,4906.789053,4525.512996,-18409.924914,-20248.646468,-10865.630015,838.682155,3445.364946,19107.209934,7994.011997,15656.189997,9166.875084,-4186.280571,-0.002000,-0.006000,1.010000,192.000000,0.000000,0.000000,0.000000,0.000000,0.000000,0.000000,0.000000,0.000000,0.000000,1771320639.782340,0.000000
240.000000,15237.877099,8524.038914,4447.840684,6076.277027,4835.397582,4460.447068,-18475.080249,-20318.406262,-11236.601917,472.135898,3076.851735,18746.408075,7617.295696,15291.565989,8758.352251,-4548.669404,-0.002000,-0.006000,1.010000,192.000000,0.000000,0.000000,0.000000,0.000000,0.000000,0.000000,0.000000,0.000000,0.000000,1771320639.782357,0.000000
242.000000,15521.610143,8815.773882,4733.540682,6361.194713,5120.985820,4750.997394,-18190.430783,-20033.779148,-10866.211160,850.126249,3456.294949,19123.280838,7998.057663,15667.254110,9159.364898,-4165.538152,-0.002000,-0.006000,1.010000,192.000000,0.000000,0.000000,0.000000,0.000000,0.000000,0.000000,0.000000,0.000000,0.000000,1771320639.782368,0.000000
244.000000,15117.915287,8403.048921,4320.055761,5945.944005,4707.925583,4337.646584,-18603.848649,-20442.860775,-11062.459476,657.856543,3256.090374,18926.786652,7796.579039,15461.103971,8961.708422,-4374.683425,-0.002000,-0.006000,1.010000,192.000000,0.000000,0.000000,0.000000,0.000000,0.000000,0.000000,0.000000,0.000000,0.000000,1771320639.782380,0.000000
246.000000,15456.141884,8741.856663,4669.257065,6287.523364,5053.505904,4677.236638,-18262.381048,-20099.470925,-11135.572032,569.835373,3184.184812,18845.135730,7724.829939,15390.003072,8867.317005,-4452.512199,-0.002000,-0.006000,1.010000,192.000000,0.000000,0.000000,127.500000,96.000000,15.500000,64.000000,0.000000,0.000000,0.000000,1771320639.782391,0.000000
248.000000,15253.255099,8550.525731,4462.414022,6086.134146,4852.116686,4476.942656,-18463.703211,-20301.575399,-10876.470611,828.042725,3437.117152,19097.196352,7981.495021,15639.023857,9165.086945,-4200.451577,-0.002000,-0.006000,1.010000,192.000000,0.000000,0.000000,0.000000,0.000000,0.000000,0.000000,0.000000,0.000000,0.000000,1771320639.782403,0.000000
250.000000,15214.743044,8496.255695,4431.233338,6052.673585,4823.886433,4445.381993,-18497.007310,-20343.037885,-11282.311235,422.067991,3030.427162,18690.819286,7581.175277,15235.910146,8707.144404,-4598.245573,-0.002000,-0.006000,1.010000,192.000000,0.000000,0.000000,0.000000,0.000000,0.000000,0.000000,0.000000,0.000000,0.000000,1771320639.782416,0.000000
252.000000,15491.100012,8773.909065,4710.026647,6333.925585,5108.491195,4723.907080,-18215.710606,-20064.110466,-10892.988550,821.985402,3422.566166,19089.395593,7975.102422,15639.381485,9139.851825,-4192.695521,-0.002000,-0.006000,1.010000,192.000000,0.000000,0.000000,0.000000,0.000000,0.000000,0.000000,0.000000,0.000000,0.000000,1771320639.782429,0.000000
254.000000,15096.055281,8376.025662,4315.384247,5935.461037,4712.530042,4327.208320,-18614.644541,-20459.982212,-11092.857849,621.691420,3225.133207,18894.555437,7780.038748,15443.647259,8943.089419,-4395.872879,-0.002000,-0.006000,1.010000,192.000000,0.000000,0.000000,0.000000,0.000000,0.000000,0.000000,0.000000,0.000000,0.000000,1771320639.782440,0.000000
0.000000,15504.779280,8784.995530,4721.984830,6332.696239,5110.435797,4728.310374,-18216.515269,-20059.260137,-11129.380599,578.798423,3191.337370,18853.361172,7739.358573,15406.900991,8872.904941,-4432.574443,-0.002000,-0.002000,1.006000,192.000000,127.500000,120.000000,127.500000,120.000000,15.500000,56.000000,0.000000,0.000000,0.000000,1771320639.782460,0.000000
2.000000,15339.286964,8621.783092,4547.082430,6173.373005,4941.903644,4558.101840,-18376.330242,-20216.951694,-10805.570877,899.501252,3508.598031,19170.018336,8052.148885,15713.946904,9232.589213,-4116.677239,-0.002000,-0.002000,1.006000,192.000000,0.000000,0.000000,0.000000,0.000000,0.000000,0.000000,0.000000,0.000000,0.000000,1771320639.782472,0.000000
4.000000,15249.254137,8540.221577,4466.973778,6100.908649,4861.303253,4485.011635,-18453.577871,-20299.921370,-11220.709827,495.918154,3101.192784,18775.241825,7641.033249,15304.977036,8782.000396,-4512.727799,-0.002000,-0.002000,1.006000,192.000000,0.000000,0.000000,0.000000,0.000000,0.000000,0.000000,0.000000,0.000000,0.000000,1771320639.782484,0.000000
6.000000,15472.190436,8759.849818,4681.148193,6311.037399,5075.857648,4701.912964,-18241.035133,-20086.439858,-10899.604666,816.352763,3417.514672,19086.489867,7959.299738,15634.575860,9144.657450,-4191.332065,-0.002000,-0.002000,1.006000,192.000000,0.000000,0.000000,0.000000,0.000000,0.000000,0.000000,0.000000,0.000000,0.000000,1771320639.782496,0.000000
8.000000,15102.112603,8387.872087,4308.052875,5929.381362,4697.912001,4320.905128,-18617.505564,-20460.362191,-11087.582837,623.457208,3227.837769,18890.845047,7766.471239,15438.215785,8933.478169,-4395.247030,-0.002000,-0.002000,1.006000,192.000000,0.000000,0.000000,0.000000,0.000000,0.000000,0.000000,0.000000,0.000000,0.000000,1771320639.782508,0.000000
10.000000,15456.030125,8740.627318,4668.273588,6283.030663,5052.343613,4676.677844,-18264.727982,-20103.404832,-11144.557434,561.453469,3170.438489,18831.121186,7710.524823,15369.238301,8861.326738,-4454.814429,-0.002000,-0.002000,1.006000,192.000000,0.000000,0.000000,127.500000,104.000000,15.500000,48.000000,0.000000,0.000000,0.000000,1771320639.782519,0.000000
12.000000,15312.241353,8599.923086,4512.124301,6137.721972,4899.122405,4528.530482,-18414.350559,-20250.434607,-10846.228700,860.653920,3464.766260,19126.365379,8006.014884,15666.270633,9188.824497,-4170.120260,-0.002000,-0.002000,1.006000,192.000000,0.000000,0.000000,0.000000,0.000000,0.000000,0.000000,0.000000,0.000000,0.000000,1771320639.782530,0.000000
14.000000,15208.819831,8486.599742,4414.938917,6040.111904,4800.640619,4434.340231,-18514.262857,-20353.699667,-11271.850618,457.070822,3051.460153,18719.764795,7590.853583,15277.260873,8738.258033,-4577.436099,-0.002000,-0.002000,1.006000,192.000000,0.000000,0.000000,0.000000,0.000000,0.000000,0.000000,0.000000,0.000000,0.000000,1771320639.782542,0.000000
16.000000,15456.700677,8739.062695,4666.887780,6294.877087,5059.227950,4695.341551,-18259.497673,-20101.370824,-10923.833957,796.549117,3400.169718,19070.821294,7941.194825,15618.460252,9111.710979,-4222.155121,-0.002000,-0.002000,1.006000,192.000000,0.000000,0.000000,0.000000,0.000000,0.000000,0.000000,0.000000,0.000000,0.000000,1771320639.782554,0.000000
18.000000,15064.405211,8344.844978,4269.607874,5892.165708,4662.350376,4293.077206,-18659.638603,-20499.768317,-11123.323276,587.984990,3189.996265,18858.747942,7736.206977,15410.387863,8900.486994,-4432.105056,-0.002000,-0.002000,1.006000,192.000000,0.000000,0.000000,0.000000,0.000000,0.000000,0.000000,0.000000,0.000000,0.000000,1771320639.782565,0.000000
20.000000,15438.081674,8723.416474,4658.215303,6275.855753,5046.956843,4664.384385,-18274.138066,-20115.273609,-11177.258036,536.665384,3140.755372,18804.254389,7688.553058,15350.351077,8822.278240,-4485.436319,-0.002000,-0.002000,1.006000,192.000000,0.000000,0.000000,127.500000,88.000000,15.500000,64.000000,0.000000,0.000000,0.000000,1771320639.782576,0.000000
22.000000,15273.125800,8559.868760,4490.778385,6107.368303,4878.625855,4485.995112,-18438.199870,-20278.955433,-10867.127581,839.911501,3448.583597,19103.588951,7992.402672,15645.818787,9174.742898,-4184.157155,-0.002000,-0.002000,1.006000,192.000000,0.000000,0.000000,0.000000,0.000000,0.000000,0.000000,0.000000,0.000000,0.000000,1771320639.782588,0.000000
24.000000,15217.782881,8503.296495,4429.288736,6051.511294,4819.304325,4443.437391,-18499.890685,-20342.121463,-11267.559083,439.569406,3049.090868,18705.459679,7587.143193,15255.087942,8725.875166,-4584.454547,-0.002000,-0.002000,1.006000,192.000000,0.000000,0.000000,0.000000,0.000000,0.000000,0.000000,0.000000,0.000000,0.000000,1771320639.782599,0.000000
26.000000,15502.991140,8788.191830,4709.601964,6340.161722,5103.149128,4735.641746,-18211.933161,-20054.298050,-10905.527878,817.850330,3419.772198,19083.293567,7958.405669,15630.798415,9128.497139,-4198.439920,-0.002000,-0.002000,1.006000,192.000000,0.000000,0.000000,0.000000,0.000000,0.000000,0.000000,0.000000,0.000000,0.000000,1771320639.782612,0.000000
28.000000,15095.496487,8383.200572,4296.586430,5931.370667,4692.793452,4321.620383,-18621.372416,-20462.463255,-11073.411831,649.228769,3247.797876,18918.494155,7785.984312,15465.775486,8953.259463,-4373.878762,-0.002000,-0.002000,1.006000,192.000000,0.000000,0.000000,0.000000,0.000000,0.000000,0.000000,0.000000,0.000000,0.000000,1771320639.782624,0.000000
30.000000,15489.311873,8776.747737,4691.295885,6320.000448,5082.026730,4707.545603,-18232.653228,-20073.431143,-11150.190073,567.644902,3168.292721,18836.105625,7710.636581,15388.617264,8848.407429,-4453.227455,-0.002000,-0.002000,1.006000,192.000000,0.000000,0.000000,127.500000,96.000000,15.500000,72.000000,0.000000,0.000000,0.000000,1771320639.782635,0.000000
32.000000,15318.432786,8604.058159,4516.594650,6148.964900,4910.611202,4530.296270,-18402.794707,-20241.628020,-10834.628145,889.532374,3484.748719,19157.791931,8028.612498,15690.365814,9211.466814,-4137.598471,-0.002000,-0.002000,1.006000,192.000000,0.000000,0.000000,0.000000,0.000000,0.000000,0.000000,0.000000,0.000000,0.000000,1771320639.782646,0.000000
34.000000,15262.911053,8542.210882,4470.483002,6095.030140,4856.564684,4482.016502,-18458.852882,-20301.821268,-11236.221938,483.870564,3081.746767,18751.079589,7623.889461,15296.393966,8760.699184,-4541.852122,-0.002000,-0.002000,1.006000,192.000000,0.000000,0.000000,0.000000,0.000000,0.000000,0.000000,0.000000,0.000000,0.000000,1771320639.782658,0.000000
36.000000,15517.989161,8809.649504,4727.416304,6353.259844,5115.979030,4742.548435,-18203.417147,-20045.133834,-10861.472590,853.166086,3447.577768,19119.078710,7996.068358,15663.431962,9164.841076,-4172.534248,-0.002000,-0.002000,1.006000,192.000000,0.000000,0.000000,0.000000,0.000000,0.000000,0.000000,0.000000,0.000000,0.000000,1771320639.782670,0.000000
38.000000,15133.092121,8422.025552,4335.701982,5961.009081,4728.377429,4358.768983,-18592.181038,-20431.908421,-11047.327345,665.098508,3260.895999,18923.791519,7812.269963,15483.992157,8971.051451,-4366.167410,-0.002000,-0.002000,1.006000,192.000000,0.000000,0.000000,0.000000,0.000000,0.000000,0.000000,0.000000,0.000000,0.000000,1771320639.782681,0.000000
40.000000,15504.935742,8797.780728,4702.248240,6327.130655,5085.491250,4722.677734,-18224.807766,-20060.020096,-11113.734378,607.721580,3206.089521,18867.867454,7748.321622,15421.250811,8885.824249,-4425.734809,-0.002000,-0.002000,1.006000,192.000000,0.000000,0.000000,127.500000,80.000000,15.500000,40.000000,0.000000,0.000000,0.000000,1771320639.782693,0.000000
42.000000,15279.831324,8563.847371,4490.152537,6121.047571,4873.887285,4502.133072,-18429.952077,-20268.114837,-10860.511465,861.257417,3467.493173,19127.974704,8007.445396,15670.070430,9200.894439,-4169.628521,-0.002000,-0.002000,1.006000,192.000000,0.000000,0.000000,0.000000,0.000000,0.000000,0.000000,0.000000,0.000000,0.000000,1771320639.782705,0.000000
44.000000,15204.260076,8482.218800,4411.653210,6036.982660,4788.101290,4420.191577,-18515.067520,-20356.784207,-11283.138249,439.949386,3047.325080,18710.332359,7587.500821,15252.942175,8726.568070,-4585.169802,-0.002000,-0.002000,1.006000,192.000000,0.000000,0.000000,0.000000,0.000000,0.000000,0.000000,0.000000,0.000000,0.000000,1771320639.782716,0.000000
46.000000,15500.197172,8781.106327,4704.751635,6330.103437,5086.899410,4709.199632,-18223.712531,-20060.154207,-10898.934114,813.759960,3425.158969,19084.031175,7961.445506,15633.570031,9126.507834,-4207.402969,-0.002000,-0.002000,1.006000,192.000000,0.000000,0.000000,0.000000,0.000000,0.000000,0.000000,0.000000,0.000000,0.000000,1771320639.782728,0.000000
48.000000,15092.501353,8377.255008,4291.266714,5920.328906,4675.135574,4296.497023,-18633.442358,-20467.648860,-11076.965758,629.670993,3238.633661,18902.065623,7775.411937,15447.871738,8939.714305,-4397.683370,-0.002000,-0.002000,1.006000,192.000000,0.000000,0.000000,0.000000,0.000000,0.000000,0.000000,0.000000,0.000000,0.000000,1771320639.782739,0.000000
50.000000,15461.573358,8750.819713,4671.089908,6297.313428,5052.187151,4674.532077,-18256.100208,-20091.804277,-11165.858646,557.184286,3165.297588,18828.908363,7702.835822,15367.673679,8835.756342,-4463.464554,-0.003000,-0.006000,1.005000,192.000000,127.500000,112.000000,127.500000,88.000000,15.500000,48.000000,0.000000,0.000000,0.000000,1771320639.782751,0.000000
52.000000,15307.413376,8589.104842,4506.871642,6137.520806,4898.585963,4518.449845,-18413.143565,-20252.312154,-10855.035288,857.435269,3467.806097,19126.432434,8000.739873,15673.557302,9186.857544,-4167.192181,-0.003000,-0.006000,1.005000,192.000000,0.000000,0.000000,0.000000,0.000000,0.000000,0.000000,0.000000,0.000000,0.000000,1771320639.782762,0.000000
54.000000,15214.407768,8498.289704,4415.274193,6044.537550,4807.949639,4442.543321,-18507.937313,-20352.895004,-11264.988633,447.705441,3055.438764,18715.540316,7589.624237,15265.637966,8738.235681,-4565.902599,-0.003000,-0.006000,1.005000,192.000000,0.000000,0.000000,0.000000,0.000000,0.000000,0.000000,0.000000,0.000000,0.000000,1771320639.782773,0.000000
56.000000,15481.175838,8761.101515,4686.043225,6313.205518,5079.277465,4707.456196,-18240.141063,-20080.226073,-10922.515204,796.750283,3398.582744,19062.394686,7943.966442,15612.268819,9120.651677,-4216.433074,-0.003000,-0.006000,1.005000,192.000000,0.000000,0.000000,0.000000,0.000000,0.000000,0.000000,0.000000,0.000000,0.000000,1771320639.782785,0.000000
58.000000,15136.243717,8423.187843,4331.030468,5959.690328,4718.028571,4341.692250,-18594.349157,-20429.717950,-11064.314671,658.549447,3258.683176,18925.981990,7794.232106,15470.424649,8955.047602,-4375.175163,-0.003000,-0.006000,1.005000,192.000000,0.000000,0.000000,0.000000,0.000000,0.000000,0.000000,0.000000,0.000000,0.000000,1771320639.782798,0.000000
60.000000,15475.073811,8755.468876,4681.885801,6304.868317,5062.983044,4690.111243,-18248.210043,-20084.942291,-11125.290230,586.241554,3195.651257,18853.428227,7726.685134,15402.095366,8872.904941,-4440.688126,-0.003000,-0.006000,1.005000,192.000000,0.000000,0.000000,127.500000,80.000000,15.500000,64.000000,0.000000,0.000000,0.000000,1771320639.782809,0.000000
62.000000,15249.052971,8525.380018,4443.437391,6068.520971,4829.586128,4450.880522,-18481.763420,-20316.841640,-10876.716480,823.974708,3437.206559,19095.542323,7971.839067,15640.074389,9177.670977,-4206.531251,-0.003000,-0.006000,1.005000,192.000000,0.000000,0.000000,0.000000,0.000000,0.000000,0.000000,0.000000,0.000000,0.000000,1771320639.782821,0.000000
64.000000,15194.760584,8471.802887,4391.961323,6019.794168,4779.607627,4407.808710,-18531.876031,-20371.268138,-11307.971037,400.275040,3011.942269,18672.312042,7545.792466,15213.960733,8687.921904,-4624.620631,-0.003000,-0.006000,1.005000,192.000000,0.000000,0.000000,0.000000,0.000000,0.000000,0.000000,0.000000,0.000000,0.000000,1771320639.782832,0.000000
66.000000,15538.061027,8824.871042,4732.713667,6364.905103,5120.739951,4741.654365,-18186.385117,-20024.927858,-10912.479271,810.138978,3415.167739,19078.666756,7951.588386,15634.844081,9115.399017,-4222.579804,-0.003000,-0.006000,1.005000,192.000000,0.000000,0.000000,0.000000,0.000000,0.000000,0.000000,0.000000,0.000000,0.000000,1771320639.782844,0.000000
68.000000,15145.139712,8426.428846,4344.888549,5974.464831,4730.523197,4355.952663,-18576.534817,-20416.083385,-11023.254517,697.776758,3301.486767,18965.902205,7835.359315,15498.297274,8998.454690,-4334.494988,-0.003000,-0.006000,1.005000,192.000000,0.000000,0.000000,0.000000,0.000000,0.000000,0.000000,0.000000,0.000000,0.000000,1771320639.782855,0.000000
70.000000,15499.504268,8784.101460,4704.125786,6333.925585,5085.312436,4717.134502,-18220.806804,-20062.679954,-11113.935544,604.659391,3208.794082,18869.163855,7738.039820,15421.697846,8889.959322,-4419.096341,-0.003000,-0.006000,1.005000,192.000000,0.000000,0.000000,0.000000,0.000000,0.000000,0.000000,0.000000,0.000000,0.000000,1771320639.782867,0.000000
72.000000,15351.870996,8629.092113,4551.932758,6186.225258,4937.992089,4567.802497,-18368.350669,-20208.033348,-10816.634991,907.503177,3511.168481,19170.152446,8042.962318,15722.149995,9234.243242,-4115.291430,0.004000,-0.008000,1.010000,192.000000,0.000000,16.000000,127.500000,96.000000,15.500000,72.000000,0.000000,0.000000,0.000000,1771320639.782888,0.000000
74.000000,15235.798387,8516.416969,4442.297452,6076.098213,4829.452017,4462.257560,-18479.952929,-20320.663788,-11240.267603,478.953180,3083.803127,18742.250650,7616.133406,15305.558181,8771.740946,-4535.526578,0.004000,-0.008000,1.010000,192.000000,0.000000,0.000000,0.000000,0.000000,0.000000,0.000000,0.000000,0.000000,0.000000,1771320640.262039,0.000000
76.000000,15522.727731,8811.638810,4723.258880,6358.177228,5114.928498,4742.414325,-18197.270417,-20036.014323,-10883.891390,845.007699,3444.739097,19106.517030,7978.969273,15653.977174,9154.983956,-4175.417623,0.004000,-0.008000,1.010000,192.000000,0.000000,0.000000,0.000000,0.000000,0.000000,0.000000,0.000000,0.000000,0.000000,1771320640.262117,0.000000
78.000000,15121.759787,8404.054749,4323.766151,5959.511514,4717.268612,4337.847750,-18592.069279,-20433.026008,-11059.464343,669.926485,3269.099089,18931.100539,7800.580001,15495.682120,8976.326463,-4355.036241,0.004000,-0.008000,1.010000,192.000000,0.000000,0.000000,0.000000,0.000000,0.000000,0.000000,0.000000,0.000000,0.000000,1771320640.262189,0.000000
80.000000,15507.617951,8792.528068,4705.042208,6338.194768,5090.833317,4711.010124,-18213.721301,-20053.471035,-11110.783948,605.620516,3209.509338,18875.668213,7742.554872,15415.059378,8880.236313,-4416.771760,0.004000,-0.008000,1.010000,192.000000,0.000000,0.000000,0.000000,0.000000,0.000000,0.000000,0.000000,0.000000,0.000000,1771320640.262254,0.000000
82.000000,15293.801164,8580.164144,4498.623848,6128.021315,4888.527678,4504.010618,-18423.470071,-20263.599785,-10855.907006,868.745252,3469.951864,19139.530556,8006.484271,15676.843009,9206.594134,-4163.302977,0.004000,-0.008000,1.010000,192.000000,0.000000,0.000000,127.500000,80.000000,15.500000,64.000000,0.000000,0.000000,0.000000,1771320640.262318,0.000000
84.000000,15242.101579,8521.222594,4441.872769,6067.828067,4832.067172,4455.373222,-18485.406755,-20327.525774,-11254.796237,473.477003,3068.380424,18733.667580,7607.975019,15287.252103,8748.249262,-4560.538180,0.004000,-0.008000,1.010000,192.000000,0.000000,0.000000,0.000000,0.000000,0.000000,0.000000,0.000000,0.000000,0.000000,1771320640.262375,0.000000
86.000000,15478.091297,8767.717632,4684.389196,6317.117073,5080.082128,4698.895478,-18241.012781,-20083.020041,-10903.605628,818.453827,3409.199823,19075.381050,7958.316262,15629.010275,9137.571947,-4219.674077,0.004000,-0.008000,1.010000,192.000000,0.000000,0.000000,0.000000,0.000000,0.000000,0.000000,0.000000,0.000000,0.000000,1771320640.262461,0.000000
88.000000,15106.515897,8396.075177,4305.594183,5939.886682,4705.645705,4325.174311,-18616.656198,-20457.054133,-11084.565352,645.786601,3231.436399,18905.016053,7776.484820,15467.407163,8948.632651,-4399.046826,0.004000,-0.008000,1.010000,192.000000,0.000000,0.000000,0.000000,0.000000,0.000000,0.000000,0.000000,0.000000,0.000000,1771320640.262518,0.000000
90.000000,15493.849277,8781.374548,4708.394970,6335.333745,5100.355160,4723.124769,-18220.426824,-20062.747009,-11131.638125,595.897507,3185.972951,18855.573995,7737.682192,15402.631808,8871.161505,-4442.073934,0.004000,-0.008000,1.010000,192.000000,0.000000,0.000000,0.000000,0.000000,0.000000,0.000000,0.000000,0.000000,0.000000,1771320640.262538,0.000000
92.000000,15325.942972,8607.947362,4538.097029,6164.566417,4929.409019,4548.579997,-18387.617873,-20228.373436,-10834.069351,892.795729,3494.829356,19158.373077,8040.391867,15708.090747,9233.393876,-4139.096038,0.004000,-0.008000,1.010000,192.000000,0.000000,0.000000,127.500000,88.000000,15.500000,64.000000,0.000000,0.000000,0.000000,1771320640.262550,0.000000
94.000000,15217.581715,8506.872774,4436.418943,6065.883466,4825.115779,4454.345042,-18489.631234,-20334.499518,-11232.109217,490.196108,3087.982903,18753.046543,7627.577499,15317.091682,8771.785649,-4541.449790,0.004000,-0.008000,1.010000,192.000000,0.000000,0.000000,0.000000,0.000000,0.000000,0.000000,0.000000,0.000000,0.000000,1771320640.262562,0.000000
96.000000,15495.995044,8785.196696,4697.733187,6333.076219,5092.800271,4722.498920,-18224.852470,-20069.944271,-10911.652256,809.602536,3401.667285,19069.077858,7948.816770,15624.986961,9129.458264,-4215.315487,0.004000,-0.008000,1.010000,192.000000,0.000000,0.000000,0.000000,0.000000,0.000000,0.000000,0.000000,0.000000,0.000000,1771320640.262574,0.000000
98.000000,15120.731607,8399.562049,4323.117950,5957.924540,4715.726342,4348.129552,-18597.277236,-20441.542022,-11063.621767,668.987712,3255.397469,18925.490251,7801.407015,15491.122364,8969.509181,-4362.948759,0.004000,-0.008000,1.010000,192.000000,0.000000,0.000000,0.000000,0.000000,0.000000,0.000000,0.000000,0.000000,0.000000,1771320640.262585,0.000000
100.000000,15439.489834,8722.611811,4651.643890,6278.962645,5040.877168,4668.631216,-18273.199293,-20119.587495,-11152.693469,567.153164,3163.800021,18827.679018,7707.015599,15383.610473,8857.862217,-4454.076821,0.004000,-0.008000,1.010000,192.000000,0.000000,0.000000,0.000000,0.000000,0.000000,0.000000,0.000000,0.000000,0.000000,1771320640.262597,0.000000
102.000000,15312.934257,8593.709301,4519.299211,6148.473161,4907.012571,4531.212691,-18402.079451,-20247.260660,-10868.759259,850.327414,3458.463068,19113.379015,7996.493041,15664.348383,9187.282227,-4166.208704,0.002000,-0.010000,1.004000,192.000000,0.000000,8.000000,127.500000,88.000000,15.500000,48.000000,0.000000,0.000000,0.000000,1771320640.262609,0.000000
104.000000,15209.333922,8490.176021,4414.000143,6041.698878,4798.941886,4415.140082,-18510.328950,-20355.577213,-11257.120819,459.685976,3063.284226,18723.743406,7600.107205,15275.316271,8744.069486,-4567.310759,0.002000,-0.010000,1.004000,192.000000,0.000000,0.000000,0.000000,0.000000,0.000000,0.000000,0.000000,0.000000,0.000000,1771320640.262621,0.000000
106.000000,15509.026111,8798.607743,4716.709818,6341.994565,5102.590335,4717.223909,-18207.976902,-20052.912242,-10901.258695,822.030106,3418.788721,19079.113791,7960.149105,15631.737188,9123.646810,-4213.460292,0.002000,-0.010000,1.004000,192.000000,0.000000,0.000000,0.000000,0.000000,0.000000,0.000000,0.000000,0.000000,0.000000,1771320640.262632,0.000000
108.000000,15083.895932,8367.599054,4283.533011,5908.728350,4674.777946,4291.847860,-18640.304344,-20481.573997,-11068.002709,654.392022,3249.474257,18910.067548,7793.695664,15482.896922,8963.407154,-4392.698931,0.002000,-0.010000,1.004000,192.000000,0.000000,0.000000,0.000000,0.000000,0.000000,0.000000,0.000000,0.000000,0.000000,1771320640.262644,0.000000
110.000000,15424.514165,8703.165794,4637.450533,6258.399041,5027.868453,4641.272681,-18293.226456,-20136.686580,-11188.389205,529.982213,3126.964346,18788.563465,7660.233398,15337.923507,8815.952696,-4513.621868,0.002000,-0.010000,1.004000,192.000000,0.000000,0.000000,0.000000,0.000000,0.000000,0.000000,0.000000,0.000000,0.000000,1771320640.262655,0.000000
112.000000,15292.057728,8574.151525,4494.220554,6119.661763,4887.767719,4499.383807,-18429.035655,-20271.221730,-10883.690224,832.222501,3435.016088,19093.217742,7974.767145,15649.618584,9170.607826,-4201.725626,0.002000,-0.014000,0.998000,192.000000,0.000000,8.000000,127.500000,72.000000,15.500000,24.000000,0.000000,0.000000,0.000000,1771320640.262667,0.000000
114.000000,15214.027788,8507.520975,4420.437446,6051.645404,4809.938945,4435.301356,-18503.824592,-20346.234184,-11260.205359,471.822974,3065.608807,18732.080606,7601.023626,15277.953777,8747.645765,-4568.741270,0.002000,-0.014000,0.998000,192.000000,0.000000,0.000000,0.000000,0.000000,0.000000,0.000000,0.000000,0.000000,0.000000,1771320640.262678,0.000000
116.000000,15505.606294,8795.545554,4702.851737,6337.591271,5095.862460,4724.488226,-18219.420996,-20059.058971,-10914.468576,814.229347,3401.801396,19072.341212,7938.289099,15625.925735,9121.657505,-4226.647821,0.002000,-0.014000,0.998000,192.000000,0.000000,0.000000,0.000000,0.000000,0.000000,0.000000,0.000000,0.000000,0.000000,1771320640.262690,0.000000
118.000000,15094.557714,8387.872087,4297.346389,5933.918766,4696.816766,4323.386171,-18621.417120,-20462.329145,-11061.990090,663.757403,3252.581150,18922.159841,7789.851164,15474.067983,8966.826971,-4372.649416,0.002000,-0.014000,0.998000,192.000000,0.000000,0.000000,0.000000,0.000000,0.000000,0.000000,0.000000,0.000000,0.000000,1771320640.262701,0.000000
120.000000,15470.268186,8746.528178,4671.067556,6304.734207,5064.525314,4695.207440,-18252.859205,-20094.598245,-11168.518504,558.100707,3148.757297,18818.581858,7691.548191,15368.523046,8837.723295,-4472.829935,0.002000,-0.014000,0.998000,192.000000,0.000000,0.000000,0.000000,0.000000,0.000000,0.000000,0.000000,0.000000,0.000000,1771320640.262713,0.000000
122.000000,15296.975112,8581.572304,4490.107833,6125.227347,4885.867820,4514.940621,-18432.120196,-20270.819398,-10844.597023,890.560554,3475.137469,19152.203995,8013.815643,15697.227800,9210.528041,-4148.863751,-0.004000,-0.012000,1.000000,192.000000,127.500000,112.000000,127.500000,80.000000,15.500000,32.000000,0.000000,0.000000,0.000000,1771320640.262726,0.000000
124.000000,15185.998700,8477.524934,4392.609524,6018.609526,4784.569715,4410.602678,-18535.295848,-20375.738487,-11293.062424,429.175845,3018.379571,18688.159429,7560.164638,15243.353277,8714.542832,-4602.201832,-0.004000,-0.012000,1.000000,192.000000,0.000000,0.000000,0.000000,0.000000,0.000000,0.000000,0.000000,0.000000,0.000000,1771320640.262737,0.000000
126.000000,15539.491539,8819.931307,4739.240377,6366.648539,5132.921652,4753.009051,-18185.580455,-20026.201907,-10898.352968,818.386771,3415.234794,19082.555960,7958.137448,15622.438863,9123.155072,-4211.001600,-0.004000,-0.012000,1.000000,192.000000,0.000000,0.000000,0.000000,0.000000,0.000000,0.000000,0.000000,0.000000,0.000000,1771320640.262749,0.000000
128.000000,15129.292325,8413.531889,4324.012020,5951.531941,4720.286098,4338.294785,-18596.941959,-20439.955049,-11040.443008,682.041130,3277.369234,18942.164653,7815.578021,15496.755004,8995.258390,-4357.405526,-0.004000,-0.012000,1.000000,192.000000,0.000000,0.000000,0.000000,0.000000,0.000000,0.000000,0.000000,0.000000,0.000000,1771320640.262760,0.000000
130.000000,15535.781149,8813.851632,4740.425019,6361.239417,5126.752570,4742.190807,-18188.016795,-20031.633381,-11107.274724,607.274545,3205.106044,18867.018088,7744.186550,15414.925267,8881.823287,-4429.087571,-0.004000,-0.012000,1.000000,192.000000,0.000000,0.000000,0.000000,0.000000,0.000000,0.000000,0.000000,0.000000,0.000000,1771320640.262772,0.000000
132.000000,15354.486150,8638.256328,4552.916235,6178.782127,4940.875464,4557.699508,-18370.965823,-20213.062491,-10784.470830,934.660546,3533.408467,19195.521676,8075.104126,15741.350143,9268.821391,-4107.781244,-0.004000,-0.012000,1.000000,192.000000,0.000000,0.000000,127.500000,64.000000,15.500000,56.000000,0.000000,0.000000,0.000000,1771320640.262784,0.000000
134.000000,15207.389320,8491.315960,4414.134254,6037.653212,4801.400578,4423.499635,-18513.905229,-20357.320649,-11240.401714,476.695654,3070.772060,18737.623839,7614.255859,15283.385251,8763.761373,-4567.444869,-0.004000,-0.012000,1.000000,192.000000,0.000000,0.000000,0.000000,0.000000,0.000000,0.000000,0.000000,0.000000,0.000000,1771320640.262795,0.000000
136.000000,15501.694739,8783.632074,4705.511594,6330.908100,5094.990742,4716.933336,-18219.555106,-20061.361201,-10918.938925,800.371265,3400.326180,19065.076895,7938.423209,15602.478755,9117.567136,-4232.794551,-0.004000,-0.012000,1.000000,192.000000,0.000000,0.000000,0.000000,0.000000,0.000000,0.000000,0.000000,0.000000,0.000000,1771320640.262807,0.000000
138.000000,15099.005711,8375.131592,4290.819680,5917.870214,4681.170545,4304.051912,-18632.481233,-20471.247491,-11072.406003,649.876970,3248.535484,18912.749757,7787.705396,15469.307061,8967.966910,-4382.998274,-0.004000,-0.012000,1.000000,192.000000,0.000000,0.000000,0.000000,0.000000,0.000000,0.000000,0.000000,0.000000,0.000000,1771320640.262818,0.000000
140.000000,15491.614102,8780.033443,4692.033493,6318.368771,5079.813907,4707.210327,-18234.664885,-20073.051163,-11155.308623,573.389301,3167.599817,18834.384541,7706.255639,15373.261615,8842.238348,-4464.224513,-0.004000,-0.012000,1.000000,192.000000,0.000000,0.000000,0.000000,0.000000,0.000000,0.000000,0.000000,0.000000,0.000000,1771320640.262830,0.000000
142.000000,15322.076121,8608.237935,4520.640316,6146.573263,4909.404207,4538.275842,-18403.465259,-20240.912764,-10858.142180,868.678197,3463.402803,19133.942620,8003.511489,15676.440677,9206.705893,-4168.980321,-0.004000,-0.012000,1.000000,192.000000,0.000000,0.000000,127.500000,80.000000,15.500000,72.000000,0.000000,0.000000,0.000000,1771320640.262842,0.000000
144.000000,15240.939288,8513.824167,4435.390763,6057.434506,4824.020544,4451.238150,-18495.688557,-20331.482033,-11218.385246,501.237869,3101.326895,18767.843398,7637.144045,15319.326856,8775.205466,-4533.313755,-0.004000,-0.012000,1.000000,192.000000,0.000000,0.000000,0.000000,0.000000,0.000000,0.000000,0.000000,0.000000,0.000000,1771320640.262853,0.000000
146.000000,15520.626667,8801.111138,4710.786606,6338.373582,5106.814814,4729.450313,-18215.174164,-20049.023038,-10892.295646,824.153522,3427.170626,19090.714346,7965.535875,15630.396084,9136.677878,-4210.442807,-0.004000,-0.012000,1.000000,192.000000,0.000000,0.000000,0.000000,0.000000,0.000000,0.000000,0.000000,0.000000,0.000000,1771320640.262864,0.000000
148.000000,15121.268048,8417.018761,4323.185006,5957.723374,4719.749656,4350.252968,-18598.126602,-20434.747092,-11045.852130,668.138345,3263.980539,18925.602010,7805.653847,15483.209846,8972.057280,-4370.056614,-0.004000,-0.012000,1.000000,192.000000,0.000000,0.000000,0.000000,0.000000,0.000000,0.000000,0.000000,0.000000,0.000000,1771320640.262876,0.000000
150.000000,15456.253643,8760.006280,4667.938312,6299.414492,5054.712898,4687.339626,-18256.860168,-20099.828553,-11147.798437,589.057873,3177.389881,18849.404913,7717.096235,15402.117718,8865.618272,-4444.420867,-0.004000,-0.012000,1.000000,192.000000,0.000000,0.000000,0.000000,0.000000,0.000000,0.000000,0.000000,0.000000,0.000000,1771320640.262888,0.000000
152.000000,15256.697268,8537.181739,4468.426641,6099.500489,4852.831942,4477.099118,-18450.918013,-20295.652186,-10900.632846,837.765734,3431.037477,19103.007806,7969.179209,15652.591366,9182.387195,-4194.707178,-0.001000,-0.011000,1.006000,192.000000,0.000000,8.000000,127.500000,88.000000,15.500000,80.000000,0.000000,0.000000,0.000000,1771320640.262899,0.000000
154.000000,15197.979235,8468.248960,4400.454986,6027.483169,4782.334540,4406.668771,-18524.254087,-20371.312841,-11287.787412,438.362412,3036.171560,18708.186592,7575.542638,15254.842073,8718.767311,-4593.127023,-0.001000,-0.011000,1.006000,192.000000,0.000000,0.000000,0.000000,0.000000,0.000000,0.000000,0.000000,0.000000,0.000000,1771320640.262913,0.000000
156.000000,15506.925047,8775.630149,4711.323048,6347.582501,5102.679742,4728.422133,-18207.731033,-20056.309707,-10927.209071,792.659914,3391.072558,19061.813541,7935.495130,15608.446671,9112.605049,-4230.805246,-0.001000,-0.011000,1.006000,192.000000,0.000000,0.000000,0.000000,0.000000,0.000000,0.000000,0.000000,0.000000,0.000000,1771320640.262924,0.000000
158.000000,15091.182600,8373.745784,4311.852671,5947.732144,4705.131615,4334.942023,-18606.441451,-20455.534214,-11041.292374,668.384214,3267.757984,18945.495063,7815.600373,15501.515925,8990.832745,-4344.754439,-0.001000,-0.011000,1.006000,192.000000,0.000000,0.000000,0.000000,0.000000,0.000000,0.000000,0.000000,0.000000,0.000000,1771320640.262936,0.000000
160.000000,15446.262413,8741.297870,4679.561219,6304.421282,5064.838238,4694.983923,-18246.377199,-20096.118164,-11180.342577,550.076431,3151.528913,18818.984189,7696.152651,15374.245092,8845.613461,-4465.811487,-0.001000,-0.011000,1.006000,192.000000,0.000000,0.000000,0.000000,0.000000,0.000000,0.000000,0.000000,0.000000,0.000000,1771320640.262947,0.000000
162.000000,15321.114996,8598.023188,4533.649031,6157.995004,4920.825949,4546.188360,-18390.121268,-20237.761168,-10847.793323,877.574191,3476.523277,19138.949411,8022.018733,15694.746756,9216.004219,-4151.814181,0.001500,-0.009500,1.006000,192.000000,0.000000,16.000000,127.500000,96.000000,15.500000,56.000000,0.000000,0.000000,0.000000,1771320640.262958,0.000000
164.000000,15211.747910,8490.980684,4424.885443,6048.404401,4814.364590,4444.353812,-18504.696310,-20350.369257,-11231.259850,485.882221,3087.982903,18755.460531,7633.456008,15306.452251,8776.121888,-4540.063982,0.001500,-0.009500,1.006000,192.000000,0.000000,0.000000,0.000000,0.000000,0.000000,0.000000,0.000000,0.000000,0.000000,1771320640.262971,0.000000
166.000000,15465.931948,8746.841102,4676.096699,6306.365884,5075.410613,4703.321124,-18251.361638,-20094.933521,-10929.399542,792.704617,3387.183355,19056.426770,7943.228834,15616.850927,9117.365970,-4234.515635,0.001500,-0.009500,1.006000,192.000000,0.000000,0.000000,0.000000,0.000000,0.000000,0.000000,0.000000,0.000000,0.000000,1771320640.262982,0.000000
168.000000,15079.157362,8359.038336,4285.321150,5918.697228,4685.462080,4315.697171,-18640.505509,-20482.870398,-11080.765555,639.081077,3230.497626,18905.820716,7783.480916,15462.243910,8954.019422,-4393.369483,0.001500,-0.009500,1.006000,192.000000,0.000000,0.000000,0.000000,0.000000,0.000000,0.000000,0.000000,0.000000,0.000000,1771320640.262994,0.000000
170.000000,15432.203166,8715.950992,4641.786771,6273.531172,5038.798456,4668.742975,-18287.012671,-20131.992713,-11175.738117,544.622605,3133.625166,18807.204820,7684.440337,15365.729078,8826.145092,-4486.442147,0.001500,-0.009500,1.006000,192.000000,0.000000,0.000000,0.000000,0.000000,0.000000,0.000000,0.000000,0.000000,0.000000,1771320640.263006,0.000000
172.000000,15318.656304,8595.497441,4525.647107,6150.104839,4920.937708,4543.953186,-18402.951169,-20246.165424,-10853.493017,866.353615,3462.039347,19132.892088,8008.562983,15690.410518,9194.390082,-4162.788887,-0.000250,-0.008750,1.005000,192.000000,127.500000,120.000000,127.500000,96.000000,15.500000,48.000000,0.000000,0.000000,0.000000,1771320640.263018,0.000000
174.000000,15236.446588,8516.595783,4444.174998,6065.056451,4836.448113,4464.380975,-18487.932502,-20332.957248,-11241.116970,473.566410,3077.768156,18742.474168,7623.397723,15296.617484,8760.609777,-4555.665500,-0.000250,-0.008750,1.005000,192.000000,0.000000,0.000000,0.000000,0.000000,0.000000,0.000000,0.000000,0.000000,0.000000,1771320640.263029,0.000000
176.000000,15520.671370,8802.988685,4724.734095,6354.131562,5122.952774,4745.632976,-18200.064385,-20045.290297,-10868.088707,844.046574,3447.421306,19107.098175,7996.493041,15659.632165,9163.924654,-4170.924922,-0.000250,-0.008750,1.005000,192.000000,0.000000,0.000000,0.000000,0.000000,0.000000,0.000000,0.000000,0.000000,0.000000,1771320640.263041,0.000000
178.000000,15095.988225,8382.552371,4295.871174,5929.224900,4693.799280,4313.372590,-18625.239268,-20465.190168,-11073.702404,644.020813,3241.539388,18909.553457,7790.052329,15471.519884,8971.856114,-4381.456003,-0.000250,-0.008750,1.005000,192.000000,0.000000,0.000000,0.000000,0.000000,0.000000,0.000000,0.000000,0.000000,0.000000,1771320640.263053,0.000000
180.000000,15434.013657,8702.919925,4633.248405,6258.466096,5024.470988,4641.898530,-18296.109831,-20136.373655,-11157.566149,560.872324,3158.569712,18831.367055,7706.725026,15368.031307,8841.098409,-4470.505353,-0.000250,-0.008750,1.005000,192.000000,0.000000,0.000000,0.000000,0.000000,0.000000,0.000000,0.000000,0.000000,0.000000,1771320640.263064,0.000000
182.000000,15296.103394,8574.643263,4509.397389,6126.166120,4900.910545,4518.449845,-18418.865611,-20261.118741,-10897.995341,819.213786,3423.326126,19090.826105,7968.061622,15632.921831,9164.774020,-4212.856795,-0.001125,-0.005375,1.001500,192.000000,127.500000,120.000000,127.500000,120.000000,15.500000,24.000000,0.000000,0.000000,0.000000,1771320640.263076,0.000000
184.000000,15232.758550,8508.280934,4449.852341,6058.909721,4835.218768,4451.729888,-18484.557388,-20331.593791,-11226.074246,474.080500,3087.938200,18745.178729,7628.315106,15296.081042,8767.181190,-4545.093125,-0.001125,-0.005375,1.001500,192.000000,0.000000,0.000000,0.000000,0.000000,0.000000,0.000000,0.000000,0.000000,0.000000,1771320640.263088,0.000000
186.000000,15550.399190,8833.007077,4762.910874,6383.322940,5159.497876,4771.583351,-18164.838036,-20011.025072,-10874.503657,836.536388,3447.577768,19106.181753,7994.391977,15654.826540,9163.611730,-4173.025986,-0.001125,-0.005375,1.001500,192.000000,0.000000,0.000000,0.000000,0.000000,0.000000,0.000000,0.000000,0.000000,0.000000,1771320640.263100,0.000000
188.000000,15108.996941,8385.748671,4313.707866,5937.427990,4715.391066,4326.291898,-18613.616361,-20450.303906,-11025.422636,683.583401,3291.719054,18959.576662,7842.355411,15499.951303,9021.789911,-4339.211206,-0.001125,-0.005375,1.001500,192.000000,0.000000,0.000000,0.000000,0.000000,0.000000,0.000000,0.000000,0.000000,0.000000,1771320640.263112,0.000000
190.000000,15499.794841,8777.105364,4707.858528,6330.215195,5106.546593,4729.964403,-18223.533717,-20064.669259,-11135.102646,566.437908,3172.226628,18837.804358,7720.247831,15385.733889,8854.688269,-4458.167190,-0.001125,-0.005375,1.001500,192.000000,0.000000,0.000000,0.000000,0.000000,0.000000,0.000000,0.000000,0.000000,0.000000,1771320640.263124,0.000000
192.000000,15359.671755,8641.117351,4565.612026,6187.745176,4965.171810,4587.539087,-18363.813265,-20209.374453,-10784.135554,924.825779,3521.226766,19190.827810,8074.366519,15760.371478,9256.527931,-4106.261326,-0.001125,-0.005375,1.001500,192.000000,0.000000,0.000000,0.000000,0.000000,15.500000,48.000000,0.000000,0.000000,0.000000,1771320640.263135,0.000000
194.000000,15199.275637,8462.415154,4421.353867,6042.660003,4816.845634,4444.286757,-18509.770156,-20361.232205,-11228.890566,479.869602,3089.301656,18746.542185,7640.876787,15293.220019,8786.828373,-4528.418723,-0.001125,-0.005375,1.001500,192.000000,0.000000,0.000000,0.000000,0.000000,0.000000,0.000000,0.000000,0.000000,0.000000,1771320640.742913,0.000000
196.000000,15509.160222,8777.284178,4731.618432,6351.382297,5130.395905,4749.812752,-18198.924446,-20051.057047,-10892.563867,809.803702,3422.365001,19083.673547,7978.544590,15633.055941,9142.511683,-4195.377731,-0.001125,-0.005375,1.001500,192.000000,0.000000,0.000000,0.000000,0.000000,0.000000,0.000000,0.000000,0.000000,0.000000,1771320640.743004,0.000000
198.000000,15106.985284,8379.266665,4326.671878,5953.588301,4729.673830,4345.760267,-18602.529896,-20457.031781,-11065.074630,649.228769,3255.196304,18919.544687,7810.727693,15478.046593,8993.224382,-4365.206285,-0.001125,-0.005375,1.001500,192.000000,0.000000,0.000000,0.000000,0.000000,0.000000,0.000000,0.000000,0.000000,0.000000,1771320640.743062,0.000000
200.000000,15450.017506,8733.921794,4675.627312,6297.805166,5080.082128,4693.441652,-18260.436447,-20111.227943,-11144.535082,564.917989,3160.782535,18829.601268,7728.540329,15388.393746,8867.406412,-4453.629786,-0.001125,-0.005375,1.001500,192.000000,0.000000,0.000000,0.000000,0.000000,0.000000,0.000000,0.000000,0.000000,0.000000,1771320640.743120,0.000000
202.000000,15321.830251,8594.692778,4533.358459,6152.831751,4935.041658,4555.352575,-18397.296178,-20242.030351,-10838.092665,869.840487,3470.175382,19141.944545,8033.820454,15689.963483,9227.448312,-4149.579006,-0.001563,-0.004688,1.002750,192.000000,127.500000,120.000000,127.500000,112.000000,15.500000,48.000000,0.000000,0.000000,0.000000,1771320640.743186,0.000000
204.000000,15197.286331,8477.279064,4417.107036,6027.885500,4808.799006,4432.999126,-18515.179278,-20363.757952,-11228.532938,466.972645,3080.964456,18746.318668,7634.372429,15293.689405,8774.981949,-4545.450752,-0.001563,-0.004688,1.002750,192.000000,0.000000,0.000000,0.000000,0.000000,0.000000,0.000000,0.000000,0.000000,0.000000,1771320640.743217,0.000000
206.000000,15506.902696,8769.394013,4726.432827,6338.105361,5120.829358,4740.402668,-18205.428804,-20054.253346,-10912.121643,779.651198,3403.388369,19060.338326,7955.209369,15614.906325,9120.182290,-4223.339763,-0.001563,-0.004688,1.002750,192.000000,0.000000,0.000000,0.000000,0.000000,0.000000,0.000000,0.000000,0.000000,0.000000,1771320640.743231,0.000000
208.000000,15117.155327,8385.391043,4330.181102,5950.682575,4734.322993,4351.884645,-18601.032329,-20445.677095,-11034.139816,667.043110,3279.336188,18944.623344,7829.972545,15486.719070,8999.013483,-4350.789410,-0.001563,-0.004688,1.002750,192.000000,0.000000,0.000000,0.000000,0.000000,0.000000,0.000000,0.000000,0.000000,0.000000,1771320640.743244,0.000000
210.000000,15446.418875,8731.954841,4665.412565,6281.577800,5066.335805,4683.852754,-18271.679374,-20114.826574,-11144.602137,560.067661,3165.476402,18831.568221,7722.326544,15382.828162,8855.180008,-4459.687109,-0.001563,-0.004688,1.002750,192.000000,0.000000,0.000000,0.000000,0.000000,0.000000,0.000000,0.000000,0.000000,0.000000,1771320640.743257,0.000000
212.000000,15312.129594,8568.585940,4523.143711,6142.639356,4924.871615,4538.141732,-18406.438042,-20249.317020,-10848.218006,853.389603,3471.069452,19126.723007,8018.397751,15670.606872,9209.455157,-4165.046414,-0.001563,-0.004688,1.002750,192.000000,0.000000,0.000000,0.000000,0.000000,0.000000,0.000000,0.000000,0.000000,0.000000,1771320640.743269,0.000000
214.000000,15214.854802,8489.036082,4435.189597,6050.281948,4832.715372,4454.009766,-18494.526266,-20341.495614,-11238.635926,457.048471,3075.175354,18734.360484,7618.815615,15287.609731,8763.739021,-4552.268034,0.006000,-0.010000,1.004000,192.000000,0.000000,24.000000,127.500000,88.000000,15.500000,48.000000,0.000000,0.000000,0.000000,1771320640.743282,0.000000
216.000000,15517.832699,8791.343426,4732.579557,6355.651481,5129.792408,4754.528970,-18193.537676,-20040.194099,-10901.437509,798.583126,3416.888823,19073.235282,7967.145201,15624.808148,9141.058819,-4208.632315,0.006000,-0.010000,1.004000,192.000000,0.000000,0.000000,0.000000,0.000000,0.000000,0.000000,0.000000,0.000000,0.000000,1771320640.743294,0.000000
218.000000,15156.583805,8430.049828,4369.363710,5998.291790,4770.801040,4396.565783,-18556.708819,-20401.331234,-10993.034958,703.051770,3313.064970,18980.721412,7864.483638,15526.706341,9025.232080,-4312.053837,0.006000,-0.010000,1.004000,192.000000,0.000000,0.000000,0.000000,0.000000,0.000000,0.000000,0.000000,0.000000,0.000000,1771320640.743315,0.000000
220.000000,15484.886227,8747.176379,4698.336685,6316.781797,5095.907163,4720.777836,-18237.347095,-20080.918977,-11106.626523,595.942211,3208.615268,18872.382506,7756.882341,15423.217764,8894.295561,-4416.995277,0.006000,-0.010000,1.004000,192.000000,0.000000,0.000000,0.000000,0.000000,0.000000,0.000000,0.000000,0.000000,0.000000,1771320640.743327,0.000000
222.000000,15310.721434,8589.797746,4527.770523,6141.857045,4924.379876,4543.707316,-18405.365158,-20246.947735,-10837.735038,867.113574,3476.389167,19139.754074,8026.980821,15701.631093,9225.481358,-4149.824876,0.006000,-0.010000,1.004000,192.000000,0.000000,0.000000,0.000000,0.000000,0.000000,0.000000,0.000000,0.000000,0.000000,1771320640.743340,0.000000
224.000000,15210.831488,8486.510335,4431.590966,6042.347079,4827.239195,4441.045754,-18501.879990,-20346.882385,-11232.668010,470.280703,3081.120918,18747.749179,7630.080894,15289.666091,8761.593254,-4553.139753,0.006000,-0.010000,1.004000,192.000000,0.000000,0.000000,127.500000,96.000000,15.500000,56.000000,0.000000,0.000000,0.000000,1771320640.743353,0.000000
226.000000,15495.480954,8756.966443,4707.970286,6326.549509,5103.931439,4715.435769,-18219.376292,-20064.021059,-10898.755300,794.001018,3411.166777,19065.881558,7956.572826,15604.892743,9130.374686,-4222.132769,0.006000,-0.010000,1.004000,192.000000,0.000000,0.000000,0.000000,0.000000,0.000000,0.000000,0.000000,0.000000,0.000000,1771320640.743365,0.000000
228.000000,15077.771554,8341.581624,4297.346389,5918.406656,4695.140385,4310.936250,-18628.726140,-20473.661479,-11055.865712,649.698156,3264.807554,18928.619495,7810.794748,15467.384811,8983.300207,-4365.787430,0.006000,-0.010000,1.004000,192.000000,0.000000,0.000000,0.000000,0.000000,0.000000,0.000000,0.000000,0.000000,0.000000,1771320640.743378,0.000000
230.000000,15409.650255,8680.389366,4633.538977,6251.112372,5029.209558,4648.425239,-18299.708462,-20142.743903,-11194.848859,511.720838,3126.986698,18787.848209,7670.828124,15336.314182,8818.009057,-4498.534441,0.006000,-0.010000,1.004000,192.000000,0.000000,0.000000,0.000000,0.000000,0.000000,0.000000,0.000000,0.000000,0.000000,1771320640.743390,0.000000
232.000000,15293.689405,8562.483914,4507.966877,6129.764751,4905.783225,4521.176758,-18421.748986,-20264.069171,-10873.162552,830.970804,3445.119076,19108.394576,7995.218992,15654.558319,9182.990692,-4186.012350,0.006000,-0.010000,1.004000,192.000000,0.000000,0.000000,0.000000,0.000000,0.000000,0.000000,0.000000,0.000000,0.000000,1771320640.743402,0.000000
234.000000,15209.356273,8482.777593,4431.814484,6050.796038,4825.786331,4450.053507,-18499.376595,-20346.345943,-11249.811798,446.721965,3061.294921,18723.139909,7610.433711,15271.225902,8741.029649,-4563.622721,-0.006000,-0.012000,1.000000,192.000000,127.500000,104.000000,127.500000,80.000000,15.500000,32.000000,0.000000,0.000000,0.000000,1771320640.743414,0.000000
236.000000,15542.777245,8817.718484,4768.230589,6388.910876,5161.844809,4788.257752,-18158.400733,-20007.515849,-10872.715518,831.283728,3445.074373,19099.610341,7992.335617,15670.785686,9151.608843,-4179.396233,-0.006000,-0.012000,1.000000,192.000000,0.000000,0.000000,0.000000,0.000000,0.000000,0.000000,0.000000,0.000000,0.000000,1771320640.743426,0.000000
238.000000,15108.572258,8381.613598,4327.163616,5947.709793,4720.442560,4339.613538,-18596.651387,-20443.732493,-11000.589848,694.714569,3312.394418,18974.082944,7861.533208,15522.414806,9032.988135,-4319.474616,-0.006000,-0.012000,1.000000,192.000000,0.000000,0.000000,0.000000,0.000000,0.000000,0.000000,0.000000,0.000000,0.000000,1771320640.743438,0.000000
240.000000,15392.305302,8658.395250,4609.197928,6236.136703,5003.303886,4622.765437,-18317.992189,-20161.631127,-11188.255094,514.335992,3127.143160,18789.345776,7678.450069,15333.587269,8823.239365,-4500.724912,-0.006000,-0.012000,1.000000,192.000000,0.000000,0.000000,0.000000,0.000000,0.000000,0.000000,0.000000,0.000000,0.000000,1771320640.743451,0.000000
242.000000,15301.512516,8577.392528,4519.723895,6141.678231,4914.165129,4531.816188,-18408.583809,-20246.746569,-10884.740756,824.354687,3432.982079,19104.237152,7983.618436,15636.766331,9165.489276,-4199.401045,-0.006000,-0.012000,1.000000,192.000000,0.000000,0.000000,0.000000,0.000000,0.000000,0.000000,0.000000,0.000000,0.000000,1771320640.743464,0.000000
244.000000,15234.233765,8499.049663,4450.075859,6064.497657,4842.438381,4462.391670,-18484.803258,-20322.340169,-11209.198679,487.603305,3103.651476,18770.346793,7658.177037,15309.380330,8771.159800,-4533.090238,-0.004000,-0.014000,1.002000,192.000000,127.500000,112.000000,127.500000,72.000000,15.500000,40.000000,0.000000,0.000000,0.000000,1771320640.743476,0.000000
246.000000,15534.104769,8803.212202,4744.604796,6359.853609,5139.090733,4761.480363,-18188.106202,-20029.822890,-10871.128544,818.744399,3435.932509,19100.616169,7989.206372,15638.018028,9147.786695,-4196.450615,-0.004000,-0.014000,1.002000,192.000000,0.000000,0.000000,0.000000,0.000000,0.000000,0.000000,0.000000,0.000000,0.000000,1771320640.743489,0.000000
248.000000,15171.492418,8440.823369,4386.731015,6004.751444,4784.837936,4405.215908,-18540.637915,-20387.428449,-10980.383871,705.912793,3325.067857,18986.421107,7878.341720,15543.157225,9037.659650,-4304.364837,-0.004000,-0.014000,1.002000,192.000000,0.000000,0.000000,0.000000,0.000000,0.000000,0.000000,0.000000,0.000000,0.000000,1771320640.743501,0.000000
250.000000,15451.693887,8715.526308,4671.581646,6285.310541,5062.513657,4680.455289,-18261.866958,-20106.824649,-11104.301942,582.642923,3198.579335,18856.624527,7754.468352,15408.152689,8894.407319,-4430.965117,-0.004000,-0.014000,1.002000,192.000000,0.000000,0.000000,0.000000,0.000000,0.000000,0.000000,0.000000,0.000000,0.000000,1771320640.743515,0.000000
252.000000,15322.321990,8583.449850,4531.816188,6147.824961,4923.754027,4541.449790,-18396.558570,-20239.258735,-10841.311317,852.629644,3472.589370,19137.228326,8019.224765,15672.149142,9211.042131,-4161.581893,-0.004000,-0.014000,1.002000,192.000000,0.000000,0.000000,0.000000,0.000000,0.000000,0.000000,0.000000,0.000000,0.000000,1771320640.743528,0.000000
254.000000,15170.643052,8439.906948,4391.804861,6012.775721,4780.792270,4407.093454,-18538.626258,-20384.321557,-11250.348240,447.593683,3067.173429,18737.087397,7617.474510,15276.746783,8754.306585,-4562.683947,-0.004000,-0.014000,1.008000,192.000000,127.500000,112.000000,127.500000,72.000000,15.500000,64.000000,0.000000,0.000000,0.000000,1771320640.743540,0.000000
0.000000,15471.341070,8733.653573,4685.417376,6307.483471,5072.884866,4702.047074,-18245.125502,-20087.021004,-10936.976783,759.467573,3378.309712,19040.311163,7928.521386,15579.836438,9092.890810,-4249.871284,-0.004000,-0.014000,1.008000,192.000000,0.000000,0.000000,0.000000,0.000000,0.000000,0.000000,0.000000,0.000000,0.000000,1771320640.743552,0.000000
2.000000,15086.309920,8352.399868,4300.118005,5923.167577,4691.854679,4314.378418,-18625.060454,-20469.816979,-11054.569310,631.168560,3252.402336,18912.749757,7802.524603,15462.489779,8961.551960,-4378.505573,-0.004000,-0.014000,1.008000,192.000000,0.000000,0.000000,0.000000,0.000000,0.000000,0.000000,0.000000,0.000000,0.000000,1771320640.743565,0.000000
4.000000,15447.625869,8718.990829,4664.920827,6284.103547,5056.545741,4674.152097,-18261.419923,-20108.389271,-11156.850893,537.157123,3156.468648,18817.486622,7705.361570,15355.782551,8825.072208,-4476.562676,-0.004000,-0.014000,1.008000,192.000000,0.000000,0.000000,0.000000,0.000000,0.000000,0.000000,0.000000,0.000000,0.000000,1771320640.743577,0.000000
6.000000,15335.464816,8602.582944,4556.157238,6169.595560,4953.683013,4559.442944,-18370.295271,-20217.935171,-10833.287040,859.983368,3477.931437,19135.507242,8028.590146,15678.295872,9213.299657,-4159.279663,-0.004000,-0.014000,1.008000,192.000000,0.000000,0.000000,0.000000,0.000000,0.000000,0.000000,0.000000,0.000000,0.000000,1771320640.743589,0.000000
8.000000,15190.245532,8462.459858,4415.207137,6026.946727,4815.750398,4427.411190,-18516.900363,-20364.540263,-11195.050024,487.893878,3110.044075,18767.686935,7662.692089,15318.499842,8794.897353,-4524.104836,-0.002000,-0.012000,1.002000,192.000000,127.500000,120.000000,127.500000,80.000000,15.500000,40.000000,0.000000,0.000000,0.000000,1771320640.743602,0.000000
10.000000,15521.900716,8791.857516,4737.251072,6354.288024,5144.321042,4754.238397,-18192.665958,-20039.031808,-10900.789309,786.021446,3398.470986,19060.472436,7956.170494,15619.309618,9121.456340,-4225.284365,-0.002000,-0.012000,1.002000,192.000000,0.000000,0.000000,0.000000,0.000000,0.000000,0.000000,0.000000,0.000000,0.000000,1771320640.743613,0.000000
12.000000,15098.201048,8371.175333,4318.133511,5934.634022,4721.649554,4329.845825,-18609.704806,-20455.847139,-11019.275906,684.700988,3300.570345,18968.629118,7857.800467,15503.616989,9024.762693,-4333.824436,-0.002000,-0.012000,1.002000,192.000000,0.000000,0.000000,0.000000,0.000000,0.000000,0.000000,0.000000,0.000000,0.000000,1771320640.743626,0.000000
14.000000,15425.899974,8684.300921,4653.700251,6265.328081,5056.813962,4665.859600,-18278.943691,-20128.639952,-11188.009225,506.423474,3128.037230,18789.345776,7684.127412,15327.462891,8825.318077,-4500.277877,-0.002000,-0.012000,1.002000,192.000000,0.000000,0.000000,0.000000,0.000000,0.000000,0.000000,0.000000,0.000000,0.000000,1771320640.743639,0.000000
16.000000,15355.447275,8622.475996,4569.277712,6184.615932,4972.346720,4582.666407,-18359.164102,-20206.379319,-10812.745787,878.736482,3500.976086,19160.004754,8057.289786,15700.513506,9236.321954,-4132.770495,-0.002000,-0.012000,1.002000,192.000000,0.000000,0.000000,0.000000,0.000000,0.000000,0.000000,0.000000,0.000000,0.000000,1771320640.743651,0.000000
18.000000,15200.929666,8470.350024,4421.286812,6035.350983,4820.086637,4432.172112,-18508.004368,-20356.560690,-11196.033501,478.506145,3101.326895,18752.398342,7653.751392,15304.708815,8793.824469,-4534.788970,0.002000,-0.012000,1.004000,192.000000,0.000000,8.000000,127.500000,80.000000,15.500000,48.000000,0.000000,0.000000,0.000000,1771320640.743663,0.000000
20.000000,15526.080492,8790.829336,4745.275348,6366.849705,5142.488199,4756.674738,-18180.014870,-20029.308799,-10878.750489,816.822149,3438.905291,19090.088497,7984.177230,15647.830444,9145.685631,-4188.895725,0.002000,-0.012000,1.004000,192.000000,0.000000,0.000000,0.000000,0.000000,0.000000,0.000000,0.000000,0.000000,0.000000,1771320640.743676,0.000000
22.000000,15050.681239,8311.831452,4266.500982,5887.583600,4663.378556,4279.152069,-18658.319850,-20503.054023,-11067.063936,626.631156,3249.787182,18908.592332,7793.874478,15452.878529,8985.468326,-4385.814594,0.002000,-0.012000,1.004000,192.000000,0.000000,0.000000,0.000000,0.000000,0.000000,0.000000,0.000000,0.000000,0.000000,1771320640.743688,0.000000
24.000000,15417.830994,8680.501125,4636.265890,6256.968529,5029.366020,4649.185198,-18292.310034,-20138.027684,-11199.900353,495.247602,3116.257860,18775.420639,7661.999185,15329.698065,8796.797251,-4515.365304,0.002000,-0.012000,1.004000,192.000000,0.000000,0.000000,0.000000,0.000000,0.000000,0.000000,0.000000,0.000000,0.000000,1771320640.743701,0.000000
26.000000,15325.786510,8597.866726,4542.053287,6161.750097,4937.992089,4550.256377,-18382.476971,-20226.160613,-10835.768084,857.927007,3482.558248,19140.357571,8028.076056,15682.587407,9210.148062,-4157.603283,0.002000,-0.012000,1.004000,192.000000,0.000000,0.000000,0.000000,0.000000,0.000000,0.000000,0.000000,0.000000,0.000000,1771320640.743714,0.000000
28.000000,15183.830581,8445.092552,4407.920469,6025.739732,4804.127491,4418.135216,-18518.532040,-20366.350754,-11235.104350,455.617959,3082.506726,18746.072798,7627.175167,15284.748707,8766.734155,-4555.039651,0.003000,-0.011000,1.006000,192.000000,0.000000,16.000000,127.500000,88.000000,15.500000,64.000000,0.000000,0.000000,0.000000,1771320640.743726,0.000000
30.000000,15521.453681,8782.313321,4743.330746,6359.652443,5139.493065,4748.605758,-18184.239350,-20031.901602,-10895.223724,796.571469,3422.700277,19078.867922,7967.636939,15618.572011,9127.491311,-4209.682847,0.003000,-0.011000,1.006000,192.000000,0.000000,0.000000,0.000000,0.000000,0.000000,0.000000,0.000000,0.000000,0.000000,1771320640.743738,0.000000
32.000000,15126.341894,8402.221906,4346.699041,5964.384194,4747.957557,4360.601826,-18579.217026,-20429.047397,-11008.658827,682.354055,3304.459549,18963.912900,7857.688708,15506.992103,9021.320524,-4326.627174,0.003000,-0.011000,1.006000,192.000000,0.000000,0.000000,0.000000,0.000000,0.000000,0.000000,0.000000,0.000000,0.000000,1771320640.743750,0.000000
34.000000,15457.862968,8721.784797,4683.204554,6296.955800,5081.177364,4697.442615,-18246.779531,-20099.381518,-11133.649782,552.870399,3170.885524,18827.723721,7725.969878,15379.833028,8857.973976,-4456.647272,0.003000,-0.011000,1.006000,192.000000,0.000000,0.000000,0.000000,0.000000,0.000000,0.000000,0.000000,0.000000,0.000000,1771320640.743762,0.000000
36.000000,15301.646626,8571.066984,4531.279746,6153.792876,4927.486769,4549.630529,-18391.238855,-20244.131415,-10827.542642,863.447888,3484.882830,19142.682152,8040.011888,15699.954712,9233.505634,-4135.430352,0.003000,-0.011000,1.006000,192.000000,0.000000,0.000000,0.000000,0.000000,0.000000,0.000000,0.000000,0.000000,0.000000,1771320640.743775,0.000000
38.000000,15173.414668,8441.180997,4392.944800,6016.977849,4788.347159,4411.854376,-18531.160776,-20382.287548,-11258.461923,440.150552,3057.629235,18717.194345,7610.009028,15273.818704,8749.925643,-4564.114459,0.003000,-0.011000,1.006000,192.000000,0.000000,0.000000,127.500000,80.000000,15.500000,32.000000,0.000000,0.000000,0.000000,1771320640.743787,0.000000
40.000000,15560.882158,8829.050819,4777.774784,6405.272353,5176.082870,4793.108081,-18145.347315,-19995.647072,-10896.564829,807.948507,3417.738189,19083.584140,7972.755488,15620.628371,9118.908241,-4200.317466,0.003000,-0.011000,1.006000,192.000000,0.000000,0.000000,0.000000,0.000000,0.000000,0.000000,0.000000,0.000000,0.000000,1771320640.743800,0.000000
42.000000,15120.150461,8391.805994,4341.625195,5970.732089,4739.843874,4356.176180,-18577.808866,-20430.053226,-10966.391679,736.825256,3347.441953,19011.365653,7898.547697,15558.892853,9067.745098,-4271.731290,0.003000,-0.011000,1.006000,192.000000,0.000000,0.000000,0.000000,0.000000,0.000000,0.000000,0.000000,0.000000,0.000000,1771320640.743812,0.000000
44.000000,15440.965049,8703.612829,4665.792545,6285.846983,5053.908235,4673.079213,-18261.688144,-20112.613751,-11165.925701,536.799495,3149.137276,18814.871468,7698.723101,15355.760200,8840.427856,-4464.358624,0.003000,-0.011000,1.006000,192.000000,0.000000,0.000000,0.000000,0.000000,0.000000,0.000000,0.000000,0.000000,0.000000,1771320640.743824,0.000000
46.000000,15365.706726,8639.373915,4587.919067,6208.465243,4982.717929,4598.893773,-18336.253564,-20183.245263,-10815.495052,891.655790,3508.240403,19170.465370,8057.893283,15717.120852,9232.902137,-4122.287526,0.003000,-0.011000,1.006000,192.000000,0.000000,0.000000,0.000000,0.000000,0.000000,0.000000,0.000000,0.000000,0.000000,1771320640.743837,0.000000
48.000000,15184.434078,8454.010898,4399.002123,6025.158587,4798.204279,4430.585138,-18524.656418,-20373.950347,-11205.600048,495.426416,3104.657305,18769.005688,7659.898121,15319.930353,8796.707844,-4515.141787,0.003000,-0.011000,1.006000,192.000000,0.000000,0.000000,127.500000,80.000000,15.500000,48.000000,0.000000,0.000000,0.000000,1771320640.743850,0.000000
50.000000,15509.361387,8787.186001,4728.690353,6354.913873,5130.798236,4754.461915,-18196.756327,-20044.105654,-10915.630867,789.933001,3392.391311,19060.405381,7953.108305,15612.492336,9103.284371,-4224.524406,0.003000,-0.011000,1.006000,192.000000,0.000000,0.000000,0.000000,0.000000,0.000000,0.000000,0.000000,0.000000,0.000000,1771320640.743862,0.000000
52.000000,15105.577124,8378.573761,4326.269546,5943.753534,4729.562072,4341.245215,-18601.389957,-20449.812168,-11005.104900,699.564898,3304.057217,18969.366726,7858.135743,15526.192251,9021.856966,-4320.480444,0.003000,-0.011000,1.006000,192.000000,0.000000,0.000000,0.000000,0.000000,0.000000,0.000000,0.000000,0.000000,0.000000,1771320640.743875,0.000000
54.000000,15422.569564,8686.044358,4650.347489,6261.014195,5050.242549,4654.683728,-18281.804714,-20134.429054,-11190.132641,520.102742,3131.389991,18789.971625,7686.586104,15334.190766,8825.005153,-4497.416854,0.003000,-0.011000,1.006000,192.000000,0.000000,0.000000,0.000000,0.000000,0.000000,0.000000,0.000000,0.000000,0.000000,1771320640.743887,0.000000
56.000000,15325.361827,8592.658769,4558.168895,6173.171839,4958.756859,4564.472087,-18369.065925,-20221.958485,-10840.841930,858.552856,3482.491193,19130.925135,8035.876815,15678.385279,9219.356980,-4145.823913,0.003000,-0.011000,1.006000,192.000000,0.000000,0.000000,0.000000,0.000000,0.000000,0.000000,0.000000,0.000000,0.000000,1771320640.743907,0.000000
58.000000,15152.672249,8414.671828,4371.844753,5995.162546,4776.388976,4386.909829,-18556.284136,-20406.270970,-11242.547481,451.684052,3070.257970,18721.441176,7626.772836,15273.304614,8769.416364,-4555.509037,0.002500,-0.011500,1.006000,192.000000,0.000000,8.000000,127.500000,80.000000,15.500000,56.000000,0.000000,0.000000,0.000000,1771320641.223718,0.000000
60.000000,15476.973710,8744.829445,4691.675865,6319.016971,5095.258963,4715.435769,-18234.821348,-20084.875236,-10945.135170,758.707614,3364.541038,19022.407415,7922.017029,15585.759650,9083.301912,-4251.212388,0.002500,-0.011500,1.006000,192.000000,0.000000,0.000000,0.000000,0.000000,0.000000,0.000000,0.000000,0.000000,0.000000,1771320641.223788,0.000000
62.000000,15094.289493,8364.335700,4310.355104,5933.315269,4708.484376,4321.106293,-18613.146974,-20461.055095,-11044.063991,660.024662,3265.411051,18929.759434,7816.695609,15478.113649,8986.742376,-4358.567817,0.002500,-0.011500,1.006000,192.000000,0.000000,0.000000,0.000000,0.000000,0.000000,0.000000,0.000000,0.000000,0.000000,1771320641.223834,0.000000
64.000000,15400.418985,8666.866561,4625.849977,6240.383534,5019.285383,4627.861634,-18303.105927,-20155.484397,-11179.046175,507.988096,3125.690296,18778.616938,7678.092441,15335.777740,8813.494004,-4501.082540,0.002500,-0.011500,1.006000,192.000000,0.000000,0.000000,0.000000,0.000000,0.000000,0.000000,0.000000,0.000000,0.000000,1771320641.223878,0.000000
66.000000,15315.169432,8593.910467,4536.845331,6154.396374,4936.025135,4549.183494,-18389.629530,-20240.309267,-10861.517294,838.883321,3451.131696,19101.554942,8009.144128,15661.934395,9192.154907,-4176.401100,0.002500,-0.011500,1.006000,192.000000,0.000000,0.000000,0.000000,0.000000,0.000000,0.000000,0.000000,0.000000,0.000000,1771320641.223922,0.000000
68.000000,15149.498302,8425.735942,4379.980788,5996.213078,4780.345235,4392.251896,-18552.909023,-20400.705385,-11240.312307,468.023177,3072.247275,18732.415883,7631.757275,15281.910036,8766.130658,-4555.374927,0.000250,-0.011750,1.005000,192.000000,127.500000,120.000000,127.500000,80.000000,15.500000,48.000000,0.000000,0.000000,0.000000,1771320641.223975,0.000000
70.000000,15502.857030,8786.247228,4723.907080,6347.180169,5127.333716,4743.017822,-18205.249990,-20052.196986,-10936.686210,772.364530,3377.147421,19038.254802,7940.390163,15591.593455,9095.438909,-4239.812999,0.000250,-0.011750,1.005000,192.000000,0.000000,0.000000,0.000000,0.000000,0.000000,0.000000,0.000000,0.000000,0.000000,1771320641.224021,0.000000
72.000000,15115.411891,8380.004272,4321.776846,5944.938176,4720.710781,4330.941061,-18602.462840,-20445.922964,-11015.610220,690.244221,3297.910487,18959.844882,7845.954042,15509.294332,9016.425492,-4334.427933,0.000250,-0.011750,1.005000,192.000000,0.000000,0.000000,0.000000,0.000000,0.000000,0.000000,0.000000,0.000000,0.000000,1771320641.224039,0.000000
74.000000,15436.539404,8712.240602,4652.984995,6276.414547,5050.086087,4670.486411,-18271.768781,-20119.654551,-11163.042326,535.324280,3146.142143,18797.794735,7691.995226,15351.535720,8822.993496,-4485.101042,0.000250,-0.011750,1.005000,192.000000,0.000000,0.000000,0.000000,0.000000,0.000000,0.000000,0.000000,0.000000,0.000000,1771320641.224058,0.000000
76.000000,15365.639671,8638.032810,4584.454547,6205.268944,4982.248543,4596.815061,-18339.919250,-20187.469743,-10804.945028,897.601354,3509.357990,19161.032934,8063.056536,15711.756433,9228.342382,-4123.159244,0.000250,-0.011750,1.005000,192.000000,0.000000,0.000000,0.000000,0.000000,0.000000,0.000000,0.000000,0.000000,0.000000,1771320641.224074,0.000000
78.000000,15156.337935,8432.150892,4376.426861,5998.783529,4779.741738,4393.280076,-18551.120883,-20400.951254,-11236.579566,472.649988,3079.824517,18743.323534,7640.027421,15291.431879,8775.920722,-4548.691755,-0.002875,-0.015875,1.001500,192.000000,127.500000,104.000000,127.500000,48.000000,15.500000,24.000000,0.000000,0.000000,0.000000,1771320641.224087,0.000000
80.000000,15497.537315,8781.754527,4717.827406,6342.195730,5127.445475,4731.394915,-18210.569705,-20057.628460,-10941.268318,774.353835,3375.493392,19036.421959,7942.044192,15588.978301,9087.839316,-4248.910159,-0.002875,-0.015875,1.001500,192.000000,0.000000,0.000000,0.000000,0.000000,0.000000,0.000000,0.000000,0.000000,0.000000,1771320641.224118,0.000000
82.000000,15110.852136,8379.244313,4329.085866,5950.146133,4735.686449,4340.999346,-18597.880733,-20444.514804,-11010.670484,695.809805,3300.704455,18957.967336,7856.012327,15509.763719,9015.330257,-4334.405581,-0.002875,-0.015875,1.001500,192.000000,0.000000,0.000000,0.000000,0.000000,0.000000,0.000000,0.000000,0.000000,0.000000,1771320641.224130,0.000000
84.000000,15454.934890,8734.100608,4681.751690,6300.040340,5076.461145,4685.752652,-18248.098284,-20098.621559,-11175.492248,532.373849,3143.392878,18795.693671,7694.006883,15345.210176,8827.866176,-4485.369263,-0.002875,-0.015875,1.001500,192.000000,0.000000,0.000000,0.000000,0.000000,0.000000,0.000000,0.000000,0.000000,0.000000,1771320641.224143,0.000000
86.000000,15385.555075,8673.057994,4604.369951,6226.547805,5003.996790,4613.064779,-18318.528631,-20168.336650,-10777.944121,925.630441,3534.883682,19190.514885,8088.492821,15735.471634,9261.244149,-4096.471262,-0.002875,-0.015875,1.001500,192.000000,0.000000,0.000000,0.000000,0.000000,0.000000,0.000000,0.000000,0.000000,0.000000,1771320641.224156,0.000000
88.000000,15183.785878,8455.195541,4403.673637,6025.985602,4801.937020,4423.946670,-18521.862450,-20372.206911,-11202.694321,507.518710,3108.501805,18764.602395,7669.710537,15312.196650,8807.682551,-4518.047514,-0.003438,-0.016938,1.001750,192.000000,127.500000,112.000000,127.500000,56.000000,15.500000,40.000000,0.000000,0.000000,0.000000,1771320641.224169,0.000000
90.000000,15533.568327,8815.885641,4758.038194,6377.846763,5159.609635,4773.818526,-18169.867178,-20018.691721,-10892.608570,812.821187,3411.680867,19072.609433,7977.650521,15620.382502,9123.915031,-4203.938449,-0.003438,-0.016938,1.001750,192.000000,0.000000,0.000000,0.000000,0.000000,0.000000,0.000000,0.000000,0.000000,0.000000,1771320641.224192,0.000000
92.000000,15102.313769,8379.490182,4329.309384,5940.311365,4727.818635,4337.356012,-18601.278198,-20449.812168,-11018.583002,694.625162,3304.459549,18957.810874,7866.383537,15510.367216,9034.329240,-4318.133511,-0.003438,-0.016938,1.001750,192.000000,0.000000,0.000000,0.000000,0.000000,0.000000,0.000000,0.000000,0.000000,0.000000,1771320641.224203,0.000000
94.000000,15435.131244,8701.779986,4656.293053,6271.452459,5053.260035,4662.842114,-18274.071011,-20121.174469,-11166.260978,532.195035,3148.824352,18798.621750,7706.501509,15344.539624,8831.084827,-4477.076766,-0.003438,-0.016938,1.001750,192.000000,0.000000,0.000000,0.000000,0.000000,0.000000,0.000000,0.000000,0.000000,0.000000,1771320641.224216,0.000000
96.000000,15347.065371,8626.208738,4559.889979,6184.750043,4960.075612,4571.691700,-18361.823960,-20208.279217,-10828.749636,873.886153,3485.128699,19144.537347,8044.638699,15682.073317,9221.256879,-4143.678146,-0.003438,-0.016938,1.001750,192.000000,0.000000,0.000000,0.000000,0.000000,0.000000,0.000000,0.000000,0.000000,0.000000,1771320641.224228,0.000000
98.000000,15201.466108,8476.809678,4414.268364,6040.916567,4809.961296,4429.199330,-18508.384348,-20357.879443,-11204.482461,501.371980,3102.377427,18761.137874,7659.205217,15314.722397,8782.648597,-4523.456636,-0.003438,-0.016938,1.001750,192.000000,0.000000,0.000000,0.000000,0.000000,0.000000,0.000000,0.000000,0.000000,0.000000,1771320641.224240,0.000000
100.000000,15459.293480,8752.272576,4677.370748,6303.907192,5072.840163,4692.346417,-18245.304316,-20096.274626,-10932.305268,781.774614,3375.180468,19035.237317,7931.784741,15584.552656,9097.741139,-4242.964595,-0.003438,-0.016938,1.001750,192.000000,0.000000,0.000000,127.500000,80.000000,15.500000,56.000000,0.000000,0.000000,0.000000,1771320641.224252,0.000000
102.000000,15090.601455,8373.119935,4315.965392,5935.863368,4714.899327,4325.196663,-18609.928323,-20459.423418,-11058.905549,662.975092,3261.052461,18923.031559,7818.439045,15461.305137,8976.684091,-4367.128535,-0.003438,-0.016938,1.001750,192.000000,0.000000,0.000000,0.000000,0.000000,0.000000,0.000000,0.000000,0.000000,0.000000,1771320641.224264,0.000000
104.000000,15413.204183,8684.524439,4627.369896,6243.021040,5031.400029,4639.864521,-18309.364415,-20153.718609,-11187.472783,523.634317,3129.043058,18781.053279,7689.424776,15333.542566,8815.036275,-4497.930944,-0.003438,-0.016938,1.001750,192.000000,0.000000,0.000000,0.000000,0.000000,0.000000,0.000000,0.000000,0.000000,0.000000,1771320641.224276,0.000000
106.000000,15361.772819,8630.947307,4567.936607,6187.029920,4976.235923,4579.537163,-18364.684983,-20204.680586,-10834.941069,875.160202,3478.534934,19128.689960,8041.196530,15686.856590,9205.722416,-4155.055184,-0.003438,-0.016938,1.001750,192.000000,0.000000,0.000000,0.000000,0.000000,0.000000,0.000000,0.000000,0.000000,0.000000,1771320641.224289,0.000000
108.000000,15182.154200,8462.996300,4399.560916,6017.111959,4800.126529,4412.591983,-18530.356113,-20376.364336,-11210.048045,496.253430,3103.226793,18756.600470,7663.519104,15303.971208,8787.543629,-4527.412895,-0.003438,-0.016938,1.001750,192.000000,0.000000,0.000000,0.000000,0.000000,0.000000,0.000000,0.000000,0.000000,0.000000,1771320641.224301,0.000000
110.000000,15519.307914,8801.111138,4741.989641,6361.999376,5136.430876,4751.399726,-18185.088716,-20036.751930,-10922.001114,790.894126,3393.419491,19049.967116,7949.621433,15601.137650,9110.034598,-4229.844121,0.002000,-0.016000,1.004000,192.000000,0.000000,8.000000,127.500000,64.000000,15.500000,48.000000,0.000000,0.000000,0.000000,1771320641.224313,0.000000
112.000000,15129.046456,8409.218002,4343.726259,5959.086831,4740.089743,4342.318099,-18582.838009,-20432.444862,-11010.446967,705.532814,3308.840490,18965.879853,7864.595397,15516.312780,9033.993963,-4326.113084,0.002000,-0.016000,1.004000,192.000000,0.000000,0.000000,0.000000,0.000000,0.000000,0.000000,0.000000,0.000000,0.000000,1771320641.224326,0.000000
114.000000,15436.002962,8703.255201,4652.336794,6261.885913,5047.873264,4652.761478,-18282.162342,-20131.009237,-11162.260015,539.124076,3145.918625,18800.991035,7708.356703,15332.804958,8837.812702,-4488.073824,0.002000,-0.016000,1.004000,192.000000,0.000000,0.000000,0.000000,0.000000,0.000000,0.000000,0.000000,0.000000,0.000000,1771320641.224339,0.000000
116.000000,15343.913775,8619.257345,4564.516790,6176.703415,4960.567350,4568.271884,-18367.456599,-20213.800098,-10827.475587,874.266133,3488.772033,19144.626754,8048.170274,15682.430945,9231.091646,-4143.208759,0.002000,-0.016000,1.004000,192.000000,0.000000,0.000000,0.000000,0.000000,0.000000,0.000000,0.000000,0.000000,0.000000,1771320641.224351,0.000000
118.000000,15150.504130,8426.473549,4372.023567,5989.596962,4770.443412,4380.986617,-18558.094628,-20405.868638,-11226.051894,475.488660,3088.631104,18736.930935,7650.063354,15284.547542,8781.687472,-4541.718011,0.002000,-0.016000,1.004000,192.000000,0.000000,0.000000,0.000000,0.000000,0.000000,0.000000,0.000000,0.000000,0.000000,1771320641.224363,0.000000
120.000000,15506.388605,8788.549458,4719.973173,6347.493094,5125.456169,4742.056697,-18202.768946,-20048.374837,-10958.233292,751.130372,3350.459439,19011.365653,7913.299848,15560.748048,9071.410784,-4265.293987,0.004000,-0.014000,1.012000,192.000000,0.000000,16.000000,127.500000,72.000000,15.500000,80.000000,0.000000,0.000000,0.000000,1771320641.224375,0.000000
122.000000,15136.064903,8417.175223,4341.267567,5972.922560,4752.629072,4370.123669,-18577.518294,-20423.146537,-11007.407130,717.915680,3312.282659,18981.011984,7869.624540,15534.350638,9031.982306,-4310.377456,0.004000,-0.014000,1.012000,192.000000,0.000000,0.000000,0.000000,0.000000,0.000000,0.000000,0.000000,0.000000,0.000000,1771320641.224389,0.000000
124.000000,15476.839599,8747.489303,4684.903286,6310.813881,5092.420291,4712.060656,-18238.934069,-20086.082230,-11140.198844,579.804251,3173.567733,18839.480739,7732.183663,15392.886447,8852.721316,-4442.610376,0.004000,-0.014000,1.012000,192.000000,0.000000,0.000000,0.000000,0.000000,0.000000,0.000000,0.000000,0.000000,0.000000,1771320641.224402,0.000000
126.000000,15362.935109,8642.905491,4571.088203,6198.339903,4977.554676,4590.064834,-18350.871605,-20195.471668,-10788.874124,923.641136,3523.573699,19186.536275,8082.368443,15728.453187,9261.646481,-4099.891078,0.004000,-0.014000,1.012000,192.000000,0.000000,0.000000,0.000000,0.000000,0.000000,0.000000,0.000000,0.000000,0.000000,1771320641.224414,0.000000
128.000000,15155.265052,8425.154796,4374.839887,5992.122709,4777.864191,4390.821384,-18557.066447,-20401.755917,-11247.844845,470.034834,3069.699177,18727.364388,7618.793263,15271.449419,8767.427059,-4558.414764,0.004000,-0.014000,1.012000,192.000000,0.000000,0.000000,0.000000,0.000000,0.000000,0.000000,0.000000,0.000000,0.000000,1771320641.224427,0.000000
130.000000,15545.794731,8826.547423,4756.965310,6378.070280,5160.280187,4781.708691,-18172.683498,-20013.081433,-10915.429701,798.761940,3400.683808,19054.169244,7954.114134,15604.736281,9094.142508,-4226.156083,0.004000,-0.014000,1.012000,192.000000,0.000000,0.000000,127.500000,80.000000,15.500000,80.000000,0.000000,0.000000,0.000000,1771320641.224439,0.000000
132.000000,15170.553645,8448.825294,4377.477393,5997.978866,4780.077014,4397.504556,-18549.779779,-20390.423583,-10976.494667,742.592006,3345.609110,19000.010967,7894.122051,15552.924937,9053.484685,-4287.444566,0.004000,-0.014000,1.012000,192.000000,0.000000,0.000000,0.000000,0.000000,0.000000,0.000000,0.000000,0.000000,0.000000,1771320641.224451,0.000000
134.000000,15476.683137,8747.511655,4687.697254,6304.667152,5087.011169,4698.381388,-18240.722208,-20084.137629,-11121.333971,591.047179,3196.567678,18851.684791,7749.573320,15402.922380,8871.317967,-4437.625937,0.004000,-0.014000,1.012000,192.000000,0.000000,0.000000,0.000000,0.000000,0.000000,0.000000,0.000000,0.000000,0.000000,1771320641.224463,0.000000
136.000000,15369.640633,8653.880197,4582.956980,6200.038636,4983.589647,4589.103709,-18341.886204,-20186.620377,-10811.359979,905.156243,3511.749627,19164.698620,8062.140115,15717.076149,9251.185864,-4125.394419,0.004000,-0.014000,1.012000,192.000000,0.000000,0.000000,0.000000,0.000000,0.000000,0.000000,0.000000,0.000000,0.000000,1771320641.224475,0.000000
138.000000,15161.635299,8448.110038,4377.700910,5990.423976,4777.417156,4387.535678,-18553.423113,-20398.716080,-11219.256964,492.833613,3097.124767,18749.582022,7657.931168,15313.381292,8794.562077,-4536.577110,0.004000,-0.014000,1.012000,192.000000,0.000000,0.000000,0.000000,0.000000,0.000000,0.000000,0.000000,0.000000,0.000000,1771320641.224487,0.000000
140.000000,15497.604370,8768.701109,4710.853661,6327.689448,5106.904221,4720.107284,-18221.700874,-20064.356335,-10942.385905,766.038986,3372.967645,19026.184860,7933.483473,15562.603243,9086.207639,-4261.695357,-0.006000,-0.016000,1.004000,192.000000,127.500000,104.000000,127.500000,64.000000,15.500000,48.000000,0.000000,0.000000,0.000000,1771320641.224500,0.000000
142.000000,15109.868659,8388.408528,4321.039238,5941.294842,4714.675810,4330.114046,-18604.385090,-20448.314601,-11026.249650,680.275342,3286.444042,18946.679705,7842.020135,15483.858047,9007.663609,-4349.045974,-0.006000,-0.016000,1.004000,192.000000,0.000000,0.000000,0.000000,0.000000,0.000000,0.000000,0.000000,0.000000,0.000000,1771320641.224512,0.000000
144.000000,15412.980665,8681.708119,4625.782922,6245.435029,5015.463235,4632.443742,-18299.931979,-20145.962554,-11178.465030,528.015259,3133.736924,18793.659662,7687.636636,15329.787472,8818.165519,-4499.450862,-0.006000,-0.016000,1.004000,192.000000,0.000000,0.000000,0.000000,0.000000,0.000000,0.000000,0.000000,0.000000,0.000000,1771320641.224524,0.000000
146.000000,15342.751484,8624.197081,4553.542084,6177.642188,4952.498371,4567.266055,-18367.948338,-20215.632941,-10861.204369,860.117478,3460.877056,19128.064111,8017.391922,15662.001450,9204.202498,-4170.030853,-0.006000,-0.016000,1.004000,192.000000,0.000000,0.000000,0.000000,0.000000,0.000000,0.000000,0.000000,0.000000,0.000000,1771320641.224537,0.000000
148.000000,15183.987043,8473.278102,4394.621181,6022.029343,4799.321866,4422.583213,-18527.539793,-20376.185522,-11224.442568,501.148462,3087.625276,18752.912432,7649.705726,15313.582458,8782.268617,-4535.526578,-0.006000,-0.016000,1.004000,192.000000,0.000000,0.000000,0.000000,0.000000,0.000000,0.000000,0.000000,0.000000,0.000000,1771320641.224549,0.000000
150.000000,15514.479937,8797.959542,4724.175301,6353.349251,5128.674821,4747.152894,-18199.326777,-20042.809253,-10921.084693,806.093312,3391.229021,19054.236299,7954.136485,15608.245505,9110.995723,-4230.000583,-0.002000,-0.010000,1.002000,192.000000,127.500000,120.000000,127.500000,88.000000,15.500000,40.000000,0.000000,0.000000,0.000000,1771320641.224561,0.000000
152.000000,15106.605304,8404.211212,4321.128645,5948.849732,4722.744789,4337.177198,-18600.562942,-20442.190223,-11013.307990,716.529872,3309.220470,18971.467790,7860.505028,15522.817138,9032.094065,-4325.621346,-0.002000,-0.010000,1.002000,192.000000,0.000000,0.000000,0.000000,0.000000,0.000000,0.000000,0.000000,0.000000,0.000000,1771320641.224574,0.000000
154.000000,15387.902008,8660.965700,4604.571117,6221.764531,4996.933639,4615.188195,-18325.703541,-20170.661231,-11206.829394,517.040553,3114.849700,18772.581967,7661.976834,15321.070292,8803.972161,-4521.512034,-0.002000,-0.010000,1.002000,192.000000,0.000000,0.000000,0.000000,0.000000,0.000000,0.000000,0.000000,0.000000,0.000000,1771320641.224588,0.000000
156.000000,15328.267554,8599.520755,4538.007622,6167.986234,4941.970699,4554.212636,-18384.846256,-20231.346218,-10868.044003,861.816211,3451.869303,19113.267256,8008.630038,15667.522331,9189.651512,-4173.540076,-0.002000,-0.010000,1.002000,192.000000,0.000000,0.000000,0.000000,0.000000,0.000000,0.000000,0.000000,0.000000,0.000000,1771320641.224600,0.000000
158.000000,15138.009505,8429.200462,4352.018756,5981.438575,4755.288929,4375.443384,-18573.785552,-20420.754900,-11262.820514,462.926979,3049.292034,18713.483955,7607.975019,15272.656414,8751.311451,-4571.267017,-0.002000,-0.010000,1.002000,192.000000,0.000000,0.000000,0.000000,0.000000,0.000000,0.000000,0.000000,0.000000,0.000000,1771320641.224612,0.000000
160.000000,15515.664579,8794.718539,4725.583461,6351.672870,5121.298745,4743.330746,-18201.137269,-20042.518680,-10940.798931,778.712425,3370.017215,19030.990485,7928.186110,15582.898627,9077.579865,-4256.934435,-0.002000,-0.010000,1.002000,192.000000,0.000000,0.000000,127.500000,72.000000,15.500000,40.000000,0.000000,0.000000,0.000000,1771320641.224624,0.000000
162.000000,15116.842403,8395.181107,4331.745724,5958.885665,4726.254013,4348.934215,-18591.354023,-20433.137766,-11000.902772,722.184863,3317.825892,18984.521208,7874.765441,15528.002742,9035.782103,-4314.289011,-0.002000,-0.010000,1.002000,192.000000,0.000000,0.000000,0.000000,0.000000,0.000000,0.000000,0.000000,0.000000,0.000000,1771320641.224636,0.000000
164.000000,15426.905802,8710.541869,4644.558387,6265.149267,5034.775142,4650.928635,-18288.510238,-20131.009237,-11187.070452,533.111457,3126.405552,18789.435183,7684.328578,15333.833138,8815.930345,-4502.244830,-0.002000,-0.010000,1.002000,192.000000,0.000000,0.000000,0.000000,0.000000,0.000000,0.000000,0.000000,0.000000,0.000000,1771320641.224648,0.000000
166.000000,15382.090554,8659.356375,4588.991951,6215.707209,4987.814127,4603.073550,-18337.102930,-20178.797266,-10819.160738,900.328267,3491.230725,19147.219556,8048.282033,15694.970273,9228.923527,-4142.627614,-0.002000,-0.010000,1.002000,192.000000,0.000000,0.000000,0.000000,0.000000,0.000000,0.000000,0.000000,0.000000,0.000000,1771320641.224660,0.000000
168.000000,15218.408730,8503.989399,4426.539472,6058.283872,4828.714410,4447.639519,-18495.710909,-20336.734693,-11175.335786,552.848047,3139.481323,18803.472078,7700.623000,15361.951633,8824.826339,-4494.779348,-0.002000,-0.010000,1.002000,192.000000,0.000000,0.000000,0.000000,0.000000,0.000000,0.000000,0.000000,0.000000,0.000000,1771320641.224673,0.000000
170.000000,15536.406998,8817.785539,4741.050868,6373.532876,5144.276338,4762.463839,-18181.043050,-20020.457509,-10904.812623,822.767713,3412.709047,19074.889311,7969.805058,15629.390255,9127.960697,-4218.310621,-0.004000,-0.011000,1.004000,192.000000,127.500000,104.000000,127.500000,80.000000,15.500000,56.000000,0.000000,0.000000,0.000000,1771320641.224685,0.000000
172.000000,15137.361304,8419.499805,4341.669898,5972.900209,4747.890502,4365.027471,-18579.507599,-20419.011464,-10970.325586,746.570617,3338.724773,19001.217961,7896.468985,15547.471112,9057.329185,-4297.636962,-0.004000,-0.011000,1.004000,192.000000,0.000000,0.000000,0.000000,0.000000,0.000000,0.000000,0.000000,0.000000,0.000000,1771320641.224697,0.000000
174.000000,15399.882543,8680.031738,4610.963715,6236.516683,5017.474892,4632.287280,-18319.288590,-20160.714705,-11192.256056,532.910291,3120.884671,18782.819066,7683.210991,15330.838004,8817.427911,-4508.458615,-0.004000,-0.011000,1.004000,192.000000,0.000000,0.000000,0.000000,0.000000,0.000000,0.000000,0.000000,0.000000,0.000000,1771320641.224710,0.000000
176.000000,15330.793301,8612.618877,4536.174778,6166.734536,4946.977490,4566.036709,-18391.395317,-20231.703845,-10849.603814,869.102880,3457.054908,19116.754129,8024.700943,15674.965462,9200.737977,-4168.600341,-0.004000,-0.011000,1.004000,192.000000,0.000000,0.000000,0.000000,0.000000,0.000000,0.000000,0.000000,0.000000,0.000000,1771320641.224722,0.000000
178.000000,15172.230026,8458.570654,4379.198477,6008.618296,4791.029369,4408.367504,-18549.690372,-20389.440106,-11228.041199,495.448768,3076.292941,18739.568441,7645.682412,15302.741862,8767.494114,-4546.233063,-0.004000,-0.011000,1.004000,192.000000,0.000000,0.000000,0.000000,0.000000,0.000000,0.000000,0.000000,0.000000,0.000000,1771320641.704742,0.000000
180.000000,15532.942478,8818.076112,4736.669926,6367.341443,5146.355050,4764.095517,-18189.648472,-20030.091110,-10929.108969,800.304210,3379.248485,19046.301430,7946.268671,15610.592438,9095.349502,-4243.188112,-0.003000,-0.011500,1.005000,192.000000,127.500000,120.000000,127.500000,80.000000,15.500000,56.000000,0.000000,0.000000,0.000000,1771320641.704838,0.000000
182.000000,15157.120247,8429.245165,4365.496858,5989.596962,4769.370528,4380.830155,-18562.073238,-20403.566409,-10980.383871,749.141067,3334.589700,19004.861296,7894.993770,15557.909376,9058.737345,-4292.361950,-0.003000,-0.011500,1.005000,192.000000,0.000000,0.000000,0.000000,0.000000,0.000000,0.000000,0.000000,0.000000,0.000000,1771320641.704923,0.000000
184.000000,15415.707578,8695.320331,4627.459303,6251.514703,5028.136674,4650.369841,-18305.385805,-20145.515519,-11149.675983,572.450527,3160.559018,18819.610038,7722.415951,15367.539569,8845.211130,-4470.505353,-0.003000,-0.011500,1.005000,192.000000,0.000000,0.000000,0.000000,0.000000,0.000000,0.000000,0.000000,0.000000,0.000000,1771320641.704992,0.000000
186.000000,15331.486205,8614.384665,4537.448828,6170.422574,4945.815199,4570.931741,-18386.634396,-20229.021636,-10853.940052,862.687929,3448.963576,19109.847440,8013.145091,15663.163741,9193.227791,-4175.976417,-0.003000,-0.011500,1.005000,192.000000,0.000000,0.000000,0.000000,0.000000,0.000000,0.000000,0.000000,0.000000,0.000000,1771320641.705077,0.000000
188.000000,15178.354404,8458.034212,4382.707701,6014.027418,4788.570677,4409.485091,-18540.079122,-20385.483847,-11217.692342,502.333105,3087.647627,18748.464435,7654.421944,15305.446423,8773.774955,-4535.168950,-0.003000,-0.011500,1.005000,192.000000,0.000000,0.000000,0.000000,0.000000,0.000000,0.000000,0.000000,0.000000,0.000000,1771320641.705135,0.000000
190.000000,15515.597524,8780.502830,4722.074237,6348.923606,5119.756474,4738.279252,-18201.673711,-20045.983201,-10926.091483,800.214803,3383.830593,19045.452064,7947.050982,15601.495278,9095.774185,-4239.231853,-0.003000,-0.011500,1.005000,192.000000,0.000000,0.000000,127.500000,88.000000,15.500000,56.000000,0.000000,0.000000,0.000000,1771320641.705194,0.000000
192.000000,15126.118377,8405.842889,4333.466808,5955.734069,4732.758371,4343.659203,-18592.225741,-20431.953124,-11006.356598,706.784511,3306.158281,18961.722429,7865.221246,15524.202946,9027.064923,-4332.908014,-0.003000,-0.011500,1.005000,192.000000,0.000000,0.000000,0.000000,0.000000,0.000000,0.000000,0.000000,0.000000,0.000000,1771320641.705222,0.000000
194.000000,15436.449997,8717.828538,4644.089001,6263.584645,5049.013203,4658.952911,-18286.386822,-20132.842080,-11171.558341,540.398126,3139.481323,18788.742279,7693.783366,15335.688333,8821.183005,-4499.540269,-0.003000,-0.011500,1.005000,192.000000,0.000000,0.000000,0.000000,0.000000,0.000000,0.000000,0.000000,0.000000,0.000000,1771320641.705267,0.000000
196.000000,15401.357758,8675.047299,4605.800462,6232.046334,5018.614831,4629.962698,-18318.148651,-20167.509635,-10785.163735,930.927805,3514.767112,19178.489647,8080.468545,15736.075131,9254.180998,-4107.736541,-0.003000,-0.011500,1.005000,192.000000,0.000000,0.000000,0.000000,0.000000,0.000000,0.000000,0.000000,0.000000,0.000000,1771320641.705294,0.000000
198.000000,15222.744968,8490.533649,4430.048696,6056.138105,4838.392715,4456.356699,-18496.359109,-20347.351771,-11182.734213,546.969539,3124.729171,18792.564427,7689.581238,15348.741752,8827.106217,-4495.762825,-0.003000,-0.011500,1.005000,192.000000,0.000000,0.000000,0.000000,0.000000,0.000000,0.000000,0.000000,0.000000,0.000000,1771320641.705321,0.000000
200.000000,15504.399300,8784.816716,4717.849757,6339.848797,5123.310402,4732.981888,-18206.948722,-20054.655678,-10906.623114,817.068019,3404.729474,19066.686221,7967.614587,15625.992790,9132.028715,-4219.517615,0.000500,-0.009750,1.005500,192.000000,0.000000,16.000000,127.500000,96.000000,15.500000,56.000000,0.000000,0.000000,0.000000,1771320641.705349,0.000000
202.000000,15122.944429,8408.793319,4340.328794,5956.136400,4745.163589,4348.777753,-18587.755393,-20432.400159,-11015.476109,709.176148,3303.341961,18959.978993,7859.454496,15510.031940,9032.496397,-4334.986727,0.000500,-0.009750,1.005500,192.000000,0.000000,0.000000,0.000000,0.000000,0.000000,0.000000,0.000000,0.000000,0.000000,1771320641.705376,0.000000
204.000000,15428.917459,8699.477756,4634.790675,6251.268834,5041.994756,4649.028736,-18299.931979,-20145.940202,-11170.373699,546.053117,3138.073163,18794.978415,7695.325636,15340.851586,8826.435664,-4497.685075,0.000500,-0.009750,1.005500,192.000000,0.000000,0.000000,0.000000,0.000000,0.000000,0.000000,0.000000,0.000000,0.000000,1771320641.705403,0.000000
206.000000,15330.078045,8609.646095,4537.694697,6164.007624,4953.258330,4563.645072,-18389.093088,-20236.442415,-10851.481360,873.103842,3455.155010,19115.144803,8021.683457,15669.332822,9212.271477,-4168.421527,0.000500,-0.009750,1.005500,192.000000,0.000000,0.000000,0.000000,0.000000,0.000000,0.000000,0.000000,0.000000,0.000000,1771320641.705430,0.000000
208.000000,15139.127092,8423.679581,4341.915767,5972.900209,4755.400688,4371.151849,-18581.474552,-20424.912325,-11231.662182,495.716989,3072.604903,18735.209851,7638.015764,15291.476582,8769.125792,-4548.758811,0.000500,-0.009750,1.005500,192.000000,0.000000,0.000000,0.000000,0.000000,0.000000,0.000000,0.000000,0.000000,0.000000,1771320641.705458,0.000000
210.000000,15499.437213,8784.570847,4697.308504,6324.269631,5104.222012,4717.827406,-18225.768891,-20065.988012,-10967.509266,760.205181,3343.083363,19004.280150,7899.464118,15551.114446,9051.450676,-4286.505793,0.001250,-0.010875,1.008750,192.000000,0.000000,8.000000,127.500000,80.000000,15.500000,80.000000,0.000000,0.000000,0.000000,1771320641.705485,0.000000
212.000000,15150.437075,8425.735942,4349.202436,5970.754441,4751.958519,4367.754384,-18573.450276,-20417.715063,-11003.003836,722.386029,3311.634458,18971.579548,7866.450592,15526.527527,9023.868623,-4327.945927,0.001250,-0.010875,1.008750,192.000000,0.000000,0.000000,0.000000,0.000000,0.000000,0.000000,0.000000,0.000000,0.000000,1771320641.705512,0.000000
214.000000,15423.687151,8703.635180,4629.761533,6254.196913,5031.869415,4648.358184,-18297.965026,-20147.504824,-11156.314451,558.279521,3146.231550,18801.214552,7710.077788,15355.111999,8828.983763,-4482.262371,0.001250,-0.010875,1.008750,192.000000,0.000000,0.000000,0.000000,0.000000,0.000000,0.000000,0.000000,0.000000,0.000000,1771320641.705539,0.000000
216.000000,15380.391822,8660.183389,4583.694587,6215.953078,4997.514784,4600.637209,-18334.890107,-20185.435734,-10813.751616,908.129025,3487.542687,19151.242870,8058.519132,15706.727291,9232.410399,-4133.888082,0.001250,-0.010875,1.008750,192.000000,0.000000,0.000000,0.000000,0.000000,0.000000,0.000000,0.000000,0.000000,0.000000,1771320641.705566,0.000000
218.000000,15193.285369,8476.049718,4401.974905,6032.914642,4810.922421,4430.719248,-18519.426110,-20364.763780,-11197.665178,537.738268,3110.066427,18783.601377,7676.460764,15332.581441,8809.157766,-4508.168043,0.001250,-0.010875,1.008750,192.000000,0.000000,0.000000,0.000000,0.000000,0.000000,0.000000,0.000000,0.000000,0.000000,1771320641.705602,0.000000
220.000000,15507.103861,8792.192792,4715.055789,6343.447428,5124.159768,4742.704897,-18207.038129,-20049.581832,-10943.682306,791.341161,3371.335968,19036.734883,7932.701162,15588.218342,9094.500136,-4246.920853,0.003625,-0.012438,1.005375,192.000000,0.000000,24.000000,127.500000,72.000000,15.500000,40.000000,0.000000,0.000000,0.000000,1771320641.705629,0.000000
222.000000,15095.474135,8388.497935,4310.466863,5929.336659,4714.362885,4321.329811,-18614.599838,-20462.530310,-11008.345903,721.111980,3310.271002,18964.024659,7859.588606,15514.859917,9034.843330,-4324.235538,0.003625,-0.012438,1.005375,192.000000,0.000000,0.000000,0.000000,0.000000,0.000000,0.000000,0.000000,0.000000,0.000000,1771320641.705656,0.000000
224.000000,15409.896125,8673.661491,4629.292146,6243.490427,5026.370886,4632.421390,-18298.993206,-20155.886728,-11210.808004,507.719875,3102.556241,18757.025153,7657.417078,15298.562085,8791.254019,-4529.268089,0.003625,-0.012438,1.005375,192.000000,0.000000,0.000000,0.000000,0.000000,0.000000,0.000000,0.000000,0.000000,0.000000,1771320641.705683,0.000000
226.000000,15398.630845,8679.227075,4619.367971,6238.930671,5029.991869,4630.275623,-18302.860058,-20153.986830,-10804.520345,918.388476,3509.648563,19169.414838,8070.253798,15720.115986,9246.760219,-4117.370143,0.003625,-0.012438,1.005375,192.000000,0.000000,0.000000,0.000000,0.000000,0.000000,0.000000,0.000000,0.000000,0.000000,1771320641.705711,0.000000
228.000000,15175.694546,8468.427774,4390.106128,6013.625087,4809.871889,4413.843681,-18537.419264,-20381.840513,-11188.746832,539.258187,3122.181072,18784.786020,7687.591933,15345.299583,8831.733028,-4505.418778,0.003625,-0.012438,1.005375,192.000000,0.000000,0.000000,0.000000,0.000000,0.000000,0.000000,0.000000,0.000000,0.000000,1771320641.705738,0.000000
230.000000,15542.151397,8822.680571,4741.050868,6375.209257,5165.219923,4778.758261,-18181.892417,-20021.418634,-10915.139129,820.756056,3394.939410,19059.623070,7960.886712,15612.984075,9113.566174,-4224.993792,0.003625,-0.012438,1.005375,192.000000,0.000000,0.000000,127.500000,80.000000,15.500000,32.000000,0.000000,0.000000,0.000000,1771320641.705765,0.000000
232.000000,15128.264144,8409.508575,4324.861386,5958.550389,4733.518330,4359.283073,-18592.024576,-20433.338932,-10997.438252,734.455971,3313.891985,18982.487200,7867.992862,15536.094074,9044.678097,-4315.451302,0.003625,-0.012438,1.005375,192.000000,0.000000,0.000000,0.000000,0.000000,0.000000,0.000000,0.000000,0.000000,0.000000,1771320641.705792,0.000000
234.000000,15424.871793,8714.498128,4633.427219,6255.627424,5025.655630,4650.638062,-18288.823162,-20135.636048,-11183.918856,544.712012,3133.088724,18791.357433,7678.248904,15336.917679,8805.112100,-4502.647162,0.003625,-0.012438,1.005375,192.000000,0.000000,0.000000,0.000000,0.000000,0.000000,0.000000,0.000000,0.000000,0.000000,1771320641.705819,0.000000
236.000000,15362.152798,8637.608127,4572.921046,6190.159165,4962.668414,4569.948264,-18351.765675,-20199.874961,-10803.425110,907.458473,3506.251097,19158.730705,8052.037126,15705.654407,9233.975021,-4136.279718,0.003625,-0.012438,1.005375,192.000000,0.000000,0.000000,0.000000,0.000000,0.000000,0.000000,0.000000,0.000000,0.000000,1771320641.705846,0.000000
238.000000,15143.642145,8417.890479,4365.630968,5985.059558,4758.641691,4367.664977,-18562.587328,-20409.780194,-11235.864310,473.164078,3074.728319,18724.793938,7621.229603,15266.532036,8768.343481,-4572.183439,0.003625,-0.012438,1.005375,192.000000,0.000000,0.000000,0.000000,0.000000,0.000000,0.000000,0.000000,0.000000,0.000000,1771320641.705873,0.000000
