Sample_index,EXG Channel 0,EXG Channel 1,EXG Channel 2,EXG Channel 3,EXG Channel 4,EXG Channel 5,EXG Channel 6,EXG Channel 7,EXG Channel 8,EXG Channel 9,EXG Channel 10,EXG Channel 11,EXG Channel 12,EXG Channel 13,EXG Channel 14,EXG Channel 15,Accel Channel 0,Accel Channel 1,Accel Channel 2,Not Used,Digital Channel 0 (D11),Digital Channel 1 (D12),Digital Channel 2 (D13),Digital Channel 3 (D17),Not Used,Digital Channel 4 (D18),Analog Channel 0,Analog Channel 1,Analog Channel 2,Timestamp,Marker Channel
210.000000,17485.948501,17024.586144,-20599.032414,-21384.740935,-17811.971046,-24195.785725,-4221.864548,-25233.979551,20644.920545,25956.186766,-22803.406156,-15658.112247,-319.138207,17519.297304,-23278.224263,-14708.431328,0.006000,-0.010000,1.008000,192.000000,0.000000,0.000000,0.000000,0.000000,0.000000,0.000000,0.000000,0.000000,0.000000,1771494517.205922,101.000000
212.000000,17546.365267,17083.214770,-20545.164710,-21330.605010,-17754.035324,-24137.827651,-4164.889951,-25177.519045,20695.077860,26002.611339,-22751.058370,-15606.926752,-264.331730,17570.594558,-23230.257419,-14666.007717,0.006000,-0.010000,1.008000,192.000000,0.000000,0.000000,0.000000,0.000000,0.000000,0.000000,0.000000,0.000000,0.000000,1771494517.205973,0.000000
214.000000,17498.353720,17037.907784,-20599.233580,-21382.461057,-17810.965217,-24193.975233,-4223.429170,-25225.172964,20686.405383,25995.838761,-22759.932013,-15612.760557,-276.982817,17565.207787,-23244.048446,-14678.859970,0.006000,-0.010000,1.008000,192.000000,0.000000,0.000000,0.000000,0.000000,0.000000,0.000000,0.000000,0.000000,0.000000,1771494517.206015,0.000000
216.000000,17549.114531,17091.462563,-20548.964506,-21334.158937,-17759.779723,-24146.097797,-4172.467193,-25176.848492,20671.988508,25983.366487,-22774.460646,-15627.490357,-296.518242,17550.768560,-23264.366181,-14702.396357,0.002000,-0.010000,1.002000,192.000000,0.000000,8.000000,127.500000,88.000000,15.500000,40.000000,0.000000,0.000000,0.000000,1771494517.206056,0.000000
218.000000,17528.238002,17072.016546,-20567.047068,-21351.638001,-17775.269482,-24177.256128,-4189.633332,-25196.160399,20712.869848,26031.333331,-22729.511288,-15581.088135,-250.317186,17594.510924,-23216.891076,-14666.007717,0.002000,-0.010000,1.002000,192.000000,0.000000,0.000000,0.000000,0.000000,0.000000,0.000000,0.000000,0.000000,0.000000,1771494517.206092,0.000000
220.000000,17509.574295,17048.658973,-20587.610672,-21372.112199,-17797.420060,-24202.737117,-4212.409760,-25216.254618,20663.964231,25970.693048,-22785.055373,-15638.956802,-307.068265,17535.658781,-23271.496388,-14719.182517,0.002000,-0.010000,1.002000,192.000000,0.000000,0.000000,0.000000,0.000000,0.000000,0.000000,0.000000,0.000000,0.000000,1771494517.206130,0.000000
222.000000,17557.362325,17098.525715,-20539.286201,-21323.318341,-17750.235528,-24150.657553,-4160.151382,-25168.041905,20707.326616,26014.189543,-22738.854318,-15593.336891,-257.022709,17583.469162,-23225.764719,-14681.296311,0.002000,-0.010000,1.002000,192.000000,0.000000,0.000000,0.000000,0.000000,0.000000,0.000000,0.000000,0.000000,0.000000,1771494517.206150,0.000000
224.000000,17497.817278,17037.393694,-20595.053803,-21377.186045,-17808.819450,-24199.741983,-4218.265917,-25224.122432,20689.579331,25998.632729,-22756.959231,-15609.653665,-272.199544,17567.577072,-23243.266135,-14690.415822,0.002000,-0.010000,1.002000,192.000000,0.000000,0.000000,0.000000,0.000000,0.000000,0.000000,0.000000,0.000000,0.000000,1771494517.206161,0.000000
226.000000,17536.508147,17078.073869,-20552.250213,-21335.097711,-17768.496903,-24155.150253,-4174.680015,-25187.823199,20666.333516,25970.737752,-22782.551978,-15634.486453,-299.491024,17543.191319,-23265.260251,-14707.894886,0.002000,-0.006000,1.002000,192.000000,0.000000,8.000000,127.500000,104.000000,15.500000,40.000000,0.000000,0.000000,0.000000,1771494517.206173,0.000000
228.000000,17515.519859,17055.543310,-20572.746762,-21356.533033,-17790.915703,-24173.925719,-4193.388426,-25210.621978,20710.791136,26016.514124,-22740.374236,-15592.599284,-252.954692,17585.994910,-23219.573286,-14661.760886,0.002000,-0.006000,1.002000,192.000000,0.000000,0.000000,0.000000,0.000000,0.000000,0.000000,0.000000,0.000000,0.000000,1771494517.206184,0.000000
230.000000,17487.691937,17024.004999,-20598.004234,-21381.768153,-17813.021578,-24193.885826,-4220.657554,-25236.304132,20651.134330,25943.915658,-22803.897894,-15656.257052,-325.597861,17519.833746,-23279.699478,-14711.448814,0.002000,-0.006000,1.002000,192.000000,0.000000,0.000000,0.000000,0.000000,0.000000,0.000000,0.000000,0.000000,0.000000,1771494517.206215,0.000000
232.000000,17539.726799,17081.113706,-20544.605916,-21333.130757,-17761.344345,-24144.711989,-4167.527457,-25185.498617,20696.977758,25983.232377,-22756.243975,-15609.586610,-271.059605,17566.213616,-23229.855088,-14665.068944,0.002000,-0.006000,1.002000,192.000000,0.000000,0.000000,0.000000,0.000000,0.000000,0.000000,0.000000,0.000000,0.000000,1771494517.206226,0.000000
234.000000,17487.334309,17026.955429,-20597.199571,-21389.524208,-17811.412252,-24194.936358,-4226.871339,-25238.360493,20682.873807,25972.436484,-22771.644327,-15624.808148,-284.291838,17553.875453,-23241.030960,-14674.702546,0.002000,-0.006000,1.002000,192.000000,0.000000,0.000000,0.000000,0.000000,0.000000,0.000000,0.000000,0.000000,0.000000,1771494517.206237,0.000000
236.000000,17537.692790,17080.420802,-20546.148186,-21341.311495,-17756.359906,-24151.126939,-4175.909361,-25188.113771,20670.647403,25957.527871,-22788.184618,-15643.516558,-296.831166,17534.809415,-23259.962888,-14700.943494,0.004000,-0.006000,1.002000,192.000000,0.000000,16.000000,127.500000,104.000000,15.500000,40.000000,0.000000,0.000000,0.000000,1771494517.206249,0.000000
238.000000,17530.853156,17071.033069,-20561.772056,-21354.923708,-17776.275310,-24174.484512,-4190.259181,-25197.389745,20719.754186,26012.066127,-22733.869879,-15585.066746,-242.248206,17590.286444,-23212.219562,-14662.386735,0.004000,-0.006000,1.002000,192.000000,0.000000,0.000000,0.000000,0.000000,0.000000,0.000000,0.000000,0.000000,0.000000,1771494517.206260,0.000000
240.000000,17511.273028,17049.262470,-20582.223902,-21372.827455,-17795.028424,-24201.775992,-4210.040475,-25214.980568,20669.239243,25956.589098,-22786.508237,-15639.537947,-296.384131,17531.926040,-23269.015344,-14719.003703,0.004000,-0.006000,1.002000,192.000000,0.000000,0.000000,0.000000,0.000000,0.000000,0.000000,0.000000,0.000000,0.000000,1771494517.206271,0.000000
242.000000,17555.730648,17098.369252,-20534.525279,-21325.821737,-17746.346324,-24157.430131,-4157.178599,-25169.561824,20710.701729,26001.806677,-22740.128367,-15591.772269,-247.031480,17576.718936,-23220.892038,-14679.932854,0.004000,-0.006000,1.002000,192.000000,0.000000,0.000000,0.000000,0.000000,0.000000,0.000000,0.000000,0.000000,0.000000,1771494517.206282,0.000000
244.000000,17492.095231,17038.421874,-20595.836114,-21383.489237,-17811.635770,-24210.269655,-4219.696429,-25230.023292,20691.926264,25982.517121,-22763.664754,-15612.581743,-270.389053,17554.523653,-23241.723864,-14695.981407,0.004000,-0.006000,1.002000,192.000000,0.000000,0.000000,0.000000,0.000000,0.000000,0.000000,0.000000,0.000000,0.000000,1771494517.206294,0.000000
246.000000,17534.004752,17080.778430,-20546.796387,-21336.617629,-17767.535778,-24164.672096,-4170.611998,-25186.616205,20667.227586,25961.797054,-22784.831856,-15635.335819,-296.339428,17534.451787,-23263.561519,-14713.706340,0.005000,-0.007000,1.003000,192.000000,0.000000,24.000000,127.500000,96.000000,15.500000,48.000000,0.000000,0.000000,0.000000,1771494517.206305,0.000000
248.000000,17515.206935,17060.438342,-20567.114123,-21356.577737,-17790.580427,-24178.194902,-4190.214478,-25205.525780,20708.980645,26001.739621,-22740.597754,-15592.264008,-248.193770,17578.216502,-23219.573286,-14669.248720,0.005000,-0.007000,1.003000,192.000000,0.000000,0.000000,0.000000,0.000000,0.000000,0.000000,0.000000,0.000000,0.000000,1771494517.206317,0.000000
250.000000,17489.882408,17033.146862,-20587.208341,-21379.868255,-17805.332578,-24196.791553,-4214.935507,-25230.224458,20657.415170,25944.563859,-22797.415888,-15650.467950,-311.471559,17519.096138,-23274.647984,-14716.008570,0.005000,-0.007000,1.003000,192.000000,0.000000,0.000000,0.000000,0.000000,0.000000,0.000000,0.000000,0.000000,0.000000,1771494517.206330,0.000000
252.000000,17530.182604,17075.078735,-20542.884832,-21337.489347,-17761.634917,-24147.260087,-4167.885085,-25191.600644,20698.140049,25982.830046,-22756.512196,-15613.431110,-265.717538,17561.497398,-23229.430405,-14672.936758,0.005000,-0.007000,1.003000,192.000000,0.000000,0.000000,0.000000,0.000000,0.000000,0.000000,0.000000,0.000000,0.000000,1771494517.206341,0.000000
254.000000,17473.051545,17018.975856,-20601.736975,-21393.413412,-17816.977837,-24196.188056,-4227.631298,-25247.837633,20683.030270,25972.660002,-22776.673469,-15632.430092,-285.744701,17543.616002,-23243.981390,-14677.384755,0.005000,-0.007000,1.003000,192.000000,0.000000,0.000000,0.000000,0.000000,0.000000,0.000000,0.000000,0.000000,0.000000,1771494517.206352,0.000000
0.000000,17516.503336,17062.248833,-20554.038352,-21347.838205,-17767.424019,-24142.454462,-4179.709158,-25203.648234,20666.020592,25943.803900,-22800.075746,-15657.307584,-302.553213,17518.604400,-23267.808350,-14694.997930,0.008500,-0.007500,1.007500,192.000000,0.000000,48.000000,127.500000,96.000000,15.500000,80.000000,0.000000,0.000000,0.000000,1771494517.206363,0.000000
2.000000,17521.152499,17066.741534,-20565.728315,-21359.662278,-17777.996394,-24153.719742,-4192.516707,-25208.543266,20721.028235,26001.627863,-22746.431559,-15603.261066,-253.960521,17575.802514,-23215.885248,-14648.998040,0.008500,-0.007500,1.007500,192.000000,0.000000,0.000000,0.000000,0.000000,0.000000,0.000000,0.000000,0.000000,0.000000,1771494517.206374,0.000000
4.000000,17492.631673,17040.120606,-20586.403678,-21381.321118,-17801.063395,-24187.090896,-4214.756693,-25227.385786,20671.317955,25953.616316,-22797.527647,-15650.244433,-306.174196,17524.460557,-23270.177635,-14704.385663,0.008500,-0.007500,1.007500,192.000000,0.000000,0.000000,0.000000,0.000000,0.000000,0.000000,0.000000,0.000000,0.000000,1771494517.206384,0.000000
6.000000,17539.860909,17088.802706,-20537.274544,-21335.120062,-17750.570804,-24159.486492,-4165.404041,-25181.028268,20707.639540,25991.010784,-22750.968963,-15605.809165,-259.928436,17565.028973,-23225.317684,-14677.384755,0.008500,-0.007500,1.007500,192.000000,0.000000,0.000000,0.000000,0.000000,0.000000,0.000000,0.000000,0.000000,0.000000,1771494517.206395,0.000000
8.000000,17493.011653,17039.159481,-20591.611635,-21386.886702,-17808.640636,-24220.618513,-4222.780969,-25229.576257,20703.772688,25978.583214,-22765.162321,-15618.549659,-272.668931,17546.991115,-23240.226297,-14698.529506,0.008500,-0.007500,1.007500,192.000000,0.000000,0.000000,0.000000,0.000000,0.000000,0.000000,0.000000,0.000000,0.000000,1771494517.206407,0.000000
10.000000,17541.403179,17088.243912,-20544.896489,-21337.422292,-17763.735981,-24172.629317,-4172.243675,-25181.564710,20691.747450,25963.652249,-22780.383859,-15634.419398,-290.975009,17527.120415,-23262.019248,-14720.590677,0.010250,-0.008750,1.009750,192.000000,0.000000,48.000000,127.500000,88.000000,15.500000,80.000000,0.000000,0.000000,0.000000,1771494517.206418,0.000000
12.000000,17519.967856,17068.373211,-20566.778847,-21355.616612,-17785.797153,-24187.225006,-4190.393292,-25201.457763,20732.539383,26016.581180,-22735.970942,-15587.413679,-248.953730,17578.037688,-23218.567457,-14676.356575,0.010250,-0.008750,1.009750,192.000000,0.000000,0.000000,0.000000,0.000000,0.000000,0.000000,0.000000,0.000000,0.000000,1771494517.206429,0.000000
14.000000,17492.966949,17043.093388,-20592.461001,-21378.750667,-17813.379206,-24201.954806,-4216.813054,-25227.788118,20675.005993,25956.991429,-22798.377013,-15647.606927,-304.698980,17522.471252,-23277.933690,-14721.551802,0.010250,-0.008750,1.009750,192.000000,0.000000,0.000000,0.000000,0.000000,0.000000,0.000000,0.000000,0.000000,0.000000,1771494517.206440,0.000000
16.000000,17543.370133,17091.931950,-20538.459186,-21331.029693,-17761.187883,-24142.141538,-4163.280626,-25180.961213,20718.167212,26001.761973,-22754.634649,-15603.708101,-260.777803,17573.567340,-23231.442062,-14679.754040,0.010250,-0.008750,1.009750,192.000000,0.000000,0.000000,0.000000,0.000000,0.000000,0.000000,0.000000,0.000000,0.000000,1771494517.206451,0.000000
18.000000,17487.624882,17033.571545,-20593.600940,-21386.774944,-17812.485136,-24191.382431,-4223.004487,-25236.885278,20705.225552,25990.206121,-22767.084571,-15621.097758,-274.412367,17561.363287,-23243.936687,-14687.554799,0.010250,-0.008750,1.009750,192.000000,0.000000,0.000000,0.000000,0.000000,0.000000,0.000000,0.000000,0.000000,0.000000,1771494517.206462,0.000000
20.000000,17524.058226,17070.898959,-20554.105407,-21348.262888,-17770.128580,-24146.298962,-4180.960856,-25199.557865,20683.432601,25961.729999,-22795.672452,-15650.914985,-299.625134,17536.508147,-23266.780170,-14706.374968,0.007125,-0.008375,1.009875,192.000000,0.000000,16.000000,127.500000,96.000000,15.500000,72.000000,0.000000,0.000000,0.000000,1771494517.206473,0.000000
22.000000,17513.776423,17057.331450,-20563.604899,-21359.662278,-17778.242264,-24149.025875,-4189.499222,-25209.817315,20731.958238,26007.349909,-22744.911640,-15602.568162,-247.903198,17586.196075,-23213.761832,-14653.535444,0.007125,-0.008375,1.009875,192.000000,0.000000,0.000000,0.000000,0.000000,0.000000,0.000000,0.000000,0.000000,0.000000,1771494517.206483,0.000000
24.000000,17486.194371,17030.866984,-20595.165562,-21386.819647,-17808.014787,-24176.093838,-4220.858719,-25236.840574,20679.856322,25949.436539,-22804.926074,-15659.363944,-305.123664,17527.634505,-23272.748086,-14699.848258,0.007125,-0.008375,1.009875,192.000000,0.000000,0.000000,0.000000,0.000000,0.000000,0.000000,0.000000,0.000000,0.000000,1771494517.206494,0.000000
26.000000,17539.033894,17088.489781,-20542.929535,-21333.644847,-17759.019763,-24133.692579,-4163.191219,-25183.978699,20725.185660,25995.950520,-22758.590908,-15608.536078,-264.309378,17576.115438,-23227.083472,-14659.011621,0.007125,-0.008375,1.009875,192.000000,0.000000,0.000000,0.000000,0.000000,0.000000,0.000000,0.000000,0.000000,0.000000,1771494517.206504,0.000000
28.000000,17493.771612,17041.282897,-20593.645643,-21385.836170,-17812.820412,-24199.853742,-4217.930641,-25230.626789,20715.082671,25988.842665,-22769.766780,-15621.656552,-280.626152,17559.508092,-23244.763702,-14675.775430,0.007125,-0.008375,1.009875,192.000000,0.000000,0.000000,0.000000,0.000000,0.000000,0.000000,0.000000,0.000000,0.000000,1771494517.206515,0.000000
30.000000,17537.692790,17086.768697,-20543.734198,-21342.272620,-17763.087781,-24171.131750,-4168.108603,-25183.777533,20700.956369,25963.272269,-22783.870731,-15638.330953,-291.265582,17538.363342,-23262.510987,-14710.755910,0.004563,-0.010188,1.010938,192.000000,0.000000,8.000000,127.500000,80.000000,15.500000,80.000000,0.000000,0.000000,0.000000,1771494517.206525,0.000000
32.000000,17525.153461,17074.095258,-20555.915899,-21355.974240,-17777.147028,-24194.198751,-4179.887972,-25195.981586,20746.285706,26014.100136,-22733.400492,-15587.883066,-242.337613,17585.793744,-23210.990216,-14674.613139,0.004563,-0.010188,1.010938,192.000000,0.000000,0.000000,0.000000,0.000000,0.000000,0.000000,0.000000,0.000000,0.000000,1771494517.206536,0.000000
34.000000,17497.459650,17044.322734,-20582.715640,-21378.348336,-17806.539572,-24216.595199,-4207.134748,-25220.747318,20693.021499,25958.153720,-22789.257501,-15642.354267,-302.821434,17526.025179,-23268.411847,-14726.625648,0.004563,-0.010188,1.010938,192.000000,0.000000,0.000000,0.000000,0.000000,0.000000,0.000000,0.000000,0.000000,0.000000,1771494517.206547,0.000000
36.000000,17548.108703,17095.441174,-20534.994666,-21325.911144,-17757.723362,-24158.145387,-4155.368108,-25173.808655,20733.724026,26001.024366,-22747.772664,-15599.885952,-257.290930,17572.695622,-23225.183573,-14683.531485,0.004563,-0.010188,1.010938,192.000000,0.000000,0.000000,0.000000,0.000000,0.000000,0.000000,0.000000,0.000000,0.000000,1771494517.206558,0.000000
38.000000,17489.927112,17032.789234,-20590.851675,-21380.985842,-17807.947732,-24201.440716,-4216.075446,-25232.817260,20718.100157,25990.630804,-22764.536472,-15615.733339,-267.080994,17563.821979,-23236.582963,-14684.559665,0.004563,-0.010188,1.010938,192.000000,0.000000,0.000000,0.000000,0.000000,0.000000,0.000000,0.000000,0.000000,0.000000,1771494517.206568,0.000000
40.000000,17525.287572,17069.669613,-20550.082093,-21343.814891,-17769.480380,-24152.937430,-4173.495373,-25195.601606,20687.321804,25959.964211,-22793.772554,-15647.584575,-309.594012,17533.892993,-23258.934708,-14705.033863,0.004281,-0.013094,1.010469,192.000000,0.000000,16.000000,127.500000,64.000000,15.500000,72.000000,0.000000,0.000000,0.000000,1771494517.206580,0.000000
42.000000,17508.322598,17051.385886,-20567.918786,-21360.712810,-17791.608607,-24168.896576,-4188.582800,-25213.080670,20729.164270,26005.360604,-22747.102111,-15600.288284,-261.269541,17582.306872,-23213.158335,-14654.809493,0.004281,-0.013094,1.010469,192.000000,0.000000,0.000000,0.000000,0.000000,0.000000,0.000000,0.000000,0.000000,0.000000,1771494517.206591,0.000000
44.000000,17484.070955,17022.552135,-20593.690347,-21385.880874,-17815.189697,-24189.057850,-4215.583708,-25240.238040,20674.536607,25946.888440,-22806.401289,-15657.374639,-324.279109,17522.717121,-23271.027001,-14700.988197,0.004281,-0.013094,1.010469,192.000000,0.000000,0.000000,0.000000,0.000000,0.000000,0.000000,0.000000,0.000000,0.000000,1771494517.206602,0.000000
46.000000,17537.290458,17072.329470,-20541.722541,-21335.701208,-17759.310336,-24129.043416,-4163.146515,-25191.690051,20713.495697,25984.104095,-22767.084571,-15618.192031,-273.250076,17561.609156,-23226.636437,-14659.838636,0.004281,-0.013094,1.010469,192.000000,0.000000,0.000000,0.000000,0.000000,0.000000,0.000000,0.000000,0.000000,0.000000,1771494517.206612,0.000000
48.000000,17494.352757,17028.698865,-20591.902207,-21383.578644,-17805.064357,-24176.250300,-4217.662420,-25236.527650,20714.322712,25979.030249,-22773.074838,-15623.064711,-279.262695,17557.854063,-23234.101919,-14662.453790,0.004281,-0.013094,1.010469,192.000000,0.000000,0.000000,0.000000,0.000000,0.000000,0.000000,0.000000,0.000000,0.000000,1771494517.206623,0.000000
50.000000,17542.476063,17080.331395,-20545.567041,-21338.159899,-17760.852606,-24137.157099,-4169.650873,-25187.554978,20696.106040,25961.573537,-22792.342042,-15639.940279,-297.591126,17539.458578,-23255.805463,-14685.051404,0.004141,-0.014547,1.012234,192.000000,0.000000,16.000000,127.500000,64.000000,15.500000,88.000000,0.000000,0.000000,0.000000,1771494517.206634,0.000000
52.000000,17537.648086,17073.178836,-20553.524262,-21348.419350,-17772.341403,-24170.148274,-4175.372919,-25193.500542,20748.967916,26016.804697,-22734.115748,-15580.305824,-240.884750,17593.326282,-23205.178762,-14649.690944,0.004141,-0.014547,1.012234,192.000000,0.000000,0.000000,0.000000,0.000000,0.000000,0.000000,0.000000,0.000000,0.000000,1771494517.206644,0.000000
54.000000,17507.070900,17046.535557,-20576.635966,-21374.615595,-17799.588180,-24212.326016,-4201.278591,-25220.724967,20695.748412,25958.332534,-22792.140876,-15637.861566,-295.333599,17526.338104,-23261.147530,-14715.270962,0.004141,-0.014547,1.012234,192.000000,0.000000,0.000000,0.000000,0.000000,0.000000,0.000000,0.000000,0.000000,0.000000,1771494517.206655,0.000000
56.000000,17557.630546,17097.586941,-20521.136584,-21323.385396,-17749.028534,-24165.096779,-4144.706326,-25171.640536,20729.432491,25995.905816,-22749.583155,-15594.342720,-258.140297,17567.152389,-23215.393509,-14682.145677,0.004141,-0.014547,1.012234,192.000000,0.000000,0.000000,0.000000,0.000000,0.000000,0.000000,0.000000,0.000000,0.000000,1771494517.206666,0.000000
58.000000,17508.724929,17042.869871,-20576.881835,-21374.615595,-17803.142107,-24211.163725,-4201.792681,-25222.513106,20725.878564,25991.435467,-22755.349905,-15604.423357,-265.717538,17561.005659,-23224.736538,-14684.470258,0.004141,-0.014547,1.012234,192.000000,0.000000,0.000000,0.000000,0.000000,0.000000,0.000000,0.000000,0.000000,0.000000,1771494517.206676,0.000000
60.000000,17545.270031,17082.074831,-20537.051026,-21333.913068,-17768.273386,-24166.035553,-4161.112507,-25185.319803,20698.452973,25958.958382,-22784.988318,-15634.374694,-296.026504,17534.585897,-23254.173786,-14707.760776,0.004141,-0.014547,1.012234,192.000000,0.000000,0.000000,0.000000,0.000000,0.000000,0.000000,0.000000,0.000000,0.000000,1771494517.206688,0.000000
62.000000,17524.728778,17064.104028,-20555.357105,-21348.687571,-17780.768011,-24170.997640,-4176.691672,-25204.184676,20740.630715,26008.199276,-22738.429634,-15585.290263,-242.538779,17586.665462,-23204.239989,-14654.474217,0.004000,-0.018000,1.014000,192.000000,0.000000,16.000000,127.500000,56.000000,15.500000,88.000000,0.000000,0.000000,0.000000,1771494517.206698,0.000000
64.000000,17494.755089,17031.783406,-20581.843922,-21374.257967,-17807.143069,-24184.408687,-4205.994809,-25233.487813,20679.968081,25940.384083,-22803.495562,-15649.998564,-308.834053,17524.639371,-23259.895833,-14698.484802,0.004000,-0.018000,1.014000,192.000000,0.000000,0.000000,0.000000,0.000000,0.000000,0.000000,0.000000,0.000000,0.000000,1771494517.206709,0.000000
66.000000,17539.033894,17074.899921,-20531.977180,-21328.012208,-17760.047944,-24132.954971,-4153.579969,-25188.583158,20712.154593,25983.455894,-22763.105960,-15610.614790,-264.488192,17567.554720,-23216.533448,-14650.942642,0.004000,-0.018000,1.014000,192.000000,0.000000,0.000000,0.000000,0.000000,0.000000,0.000000,0.000000,0.000000,0.000000,1771494517.206720,0.000000
68.000000,17480.897007,17013.454975,-20591.410469,-21388.183104,-17815.681436,-24183.045230,-4215.449597,-25246.116548,20701.425755,25967.228528,-22778.640423,-15629.926697,-282.280181,17552.132017,-23230.503289,-14655.994136,0.004000,-0.018000,1.014000,192.000000,0.000000,0.000000,0.000000,0.000000,0.000000,0.000000,0.000000,0.000000,0.000000,1771494517.206731,0.000000
70.000000,17535.479967,17068.440267,-20542.236631,-21341.535013,-17761.992545,-24124.774232,-4166.879257,-25194.796943,20680.884502,25948.855394,-22800.165153,-15653.038401,-302.307344,17524.527612,-23253.793806,-14678.792915,0.004000,-0.018000,1.014000,192.000000,0.000000,0.000000,0.000000,0.000000,0.000000,0.000000,0.000000,0.000000,0.000000,1771494517.206741,0.000000
72.000000,17537.178700,17071.100124,-20548.629230,-21345.804196,-17771.402630,-24131.949142,-4173.830649,-25195.065164,20737.210898,26020.336273,-22738.139062,-15586.407851,-240.214198,17592.052232,-23198.272073,-14630.535499,0.008000,-0.010000,1.010000,192.000000,0.000000,32.000000,127.500000,88.000000,15.500000,72.000000,0.000000,0.000000,0.000000,1771494517.206752,0.000000
74.000000,17523.432377,17057.219691,-20567.851730,-21362.322135,-17792.167400,-24163.286288,-4195.265972,-25208.856190,20689.847552,25978.449104,-22785.994147,-15631.603078,-292.740797,17546.007639,-23256.967754,-14685.811363,0.008000,-0.010000,1.010000,192.000000,0.000000,0.000000,0.000000,0.000000,0.000000,0.000000,0.000000,0.000000,0.000000,1771494517.687052,0.000000
76.000000,17576.920101,17111.869706,-20512.665273,-21312.701263,-17744.468778,-24140.711026,-4137.844341,-25156.217832,20744.385808,26032.294456,-22731.344131,-15578.987071,-237.867264,17595.449697,-23209.224428,-14656.284709,0.008000,-0.010000,1.010000,192.000000,0.000000,0.000000,0.000000,0.000000,0.000000,0.000000,0.000000,0.000000,0.000000,1771494517.687130,0.000000
78.000000,17521.018388,17051.363534,-20570.355126,-21367.530092,-17806.584276,-24214.360024,-4193.813109,-25207.358623,20728.896049,26014.547171,-22743.659943,-15591.548752,-254.072279,17573.522636,-23225.496498,-14680.514000,0.008000,-0.010000,1.010000,192.000000,0.000000,0.000000,0.000000,0.000000,0.000000,0.000000,0.000000,0.000000,0.000000,1771494517.687196,0.000000
80.000000,17552.042610,17088.176857,-20532.535974,-21328.325132,-17767.625185,-24185.034536,-4151.277739,-25171.394667,20694.496714,25978.627918,-22772.873673,-15619.689598,-289.499794,17535.524671,-23256.878347,-14713.080491,0.008000,-0.010000,1.010000,192.000000,0.000000,0.000000,0.000000,0.000000,0.000000,0.000000,0.000000,0.000000,0.000000,1771494517.687208,0.000000
82.000000,17530.987266,17067.233272,-20545.589393,-21341.177385,-17783.606682,-24197.149181,-4163.705309,-25189.991318,20736.920325,26023.599627,-22727.633742,-15573.533246,-241.488247,17584.407936,-23201.826000,-14662.654956,0.006000,-0.008000,1.008000,192.000000,0.000000,24.000000,127.500000,96.000000,15.500000,64.000000,0.000000,0.000000,0.000000,1771494517.687270,0.000000
84.000000,17496.543228,17031.314019,-20575.540730,-21372.067496,-17812.015749,-24218.405690,-4198.506975,-25223.630693,20677.308223,25957.885499,-22790.330385,-15637.638049,-306.174196,17518.403234,-23259.314687,-14709.526564,0.006000,-0.008000,1.008000,192.000000,0.000000,0.000000,0.000000,0.000000,0.000000,0.000000,0.000000,0.000000,0.000000,1771494517.687307,0.000000
86.000000,17543.146615,17076.397488,-20530.054930,-21323.407748,-17764.227720,-24151.462215,-4149.020213,-25180.424771,20708.757127,25994.184732,-22756.467492,-15605.205668,-269.964370,17565.967746,-23217.874553,-14667.773505,0.006000,-0.008000,1.008000,192.000000,0.000000,0.000000,0.000000,0.000000,0.000000,0.000000,0.000000,0.000000,0.000000,1771494517.687338,0.000000
88.000000,17491.491734,17023.110929,-20586.314271,-21377.297804,-17820.241191,-24195.673966,-4207.313562,-25233.711330,20702.319825,25985.042868,-22769.409152,-15617.901458,-283.911858,17560.200996,-23231.866745,-14665.359517,0.006000,-0.008000,1.008000,192.000000,0.000000,0.000000,0.000000,0.000000,0.000000,0.000000,0.000000,0.000000,0.000000,1771494517.687368,0.000000
90.000000,17526.494566,17055.945642,-20544.918841,-21345.535975,-17783.003185,-24153.742093,-4166.789850,-25200.630748,20677.084705,25949.190670,-22797.214722,-15648.858625,-309.661068,17529.623810,-23256.341905,-14684.917293,0.006000,-0.008000,1.008000,192.000000,0.000000,0.000000,0.000000,0.000000,0.000000,0.000000,0.000000,0.000000,0.000000,1771494517.687380,0.000000
92.000000,17516.503336,17041.662877,-20555.245346,-21358.790560,-17793.508505,-24158.257146,-4177.943370,-25210.778440,20721.564677,25996.665775,-22750.499576,-15605.071557,-254.631073,17577.165970,-23205.648149,-14637.241022,0.010000,-0.010000,1.008000,192.000000,0.000000,40.000000,127.500000,88.000000,15.500000,64.000000,0.000000,0.000000,0.000000,1771494517.687391,0.000000
94.000000,17502.287627,17025.770786,-20575.876007,-21381.902263,-17809.490002,-24174.551567,-4205.413664,-25228.190449,20675.095400,25945.748502,-22800.768650,-15657.374639,-310.398675,17524.885240,-23259.314687,-14688.337110,0.010000,-0.010000,1.008000,192.000000,0.000000,0.000000,0.000000,0.000000,0.000000,0.000000,0.000000,0.000000,0.000000,1771494517.687402,0.000000
96.000000,17565.163084,17092.848372,-20518.879058,-21328.347484,-17744.133502,-24123.477831,-4149.310785,-25168.712457,20726.638523,26003.661871,-22746.364504,-15602.814031,-254.631073,17577.702412,-23211.638416,-14655.033011,0.010000,-0.010000,1.008000,192.000000,0.000000,0.000000,0.000000,0.000000,0.000000,0.000000,0.000000,0.000000,0.000000,1771494517.687413,0.000000
98.000000,17514.581086,17043.562775,-20578.111181,-21378.303633,-17802.985645,-24172.562262,-4208.118225,-25218.847420,20726.124433,26006.075860,-22751.840681,-15603.484583,-261.381300,17574.215540,-23223.574248,-14664.688964,0.010000,-0.010000,1.008000,192.000000,0.000000,0.000000,0.000000,0.000000,0.000000,0.000000,0.000000,0.000000,0.000000,1771494517.687423,0.000000
100.000000,17558.055229,17090.054404,-20536.045198,-21328.436891,-17764.518292,-24138.878183,-4159.927864,-25174.523911,20704.599703,25985.355793,-22778.685126,-15623.020008,-291.131472,17554.255432,-23255.179614,-14690.080546,0.010000,-0.010000,1.008000,192.000000,0.000000,0.000000,0.000000,0.000000,0.000000,0.000000,0.000000,0.000000,0.000000,1771494517.687433,0.000000
102.000000,17540.620868,17075.235197,-20550.618535,-21340.059798,-17787.473534,-24168.851873,-4170.075556,-25188.292585,20752.119512,26038.709407,-22727.186707,-15567.475923,-239.431887,17610.268904,-23206.005777,-14647.165197,0.004000,-0.012000,1.008000,192.000000,0.000000,16.000000,127.500000,80.000000,15.500000,64.000000,0.000000,0.000000,0.000000,1771494517.687444,0.000000
104.000000,17507.607342,17039.874737,-20578.804085,-21370.704039,-17826.723197,-24214.069452,-4201.300943,-25219.875600,20690.585159,25970.693048,-22790.106868,-15630.150214,-304.229594,17542.341953,-23269.641193,-14711.202945,0.004000,-0.012000,1.008000,192.000000,0.000000,0.000000,0.000000,0.000000,0.000000,0.000000,0.000000,0.000000,0.000000,1771494517.687456,0.000000
106.000000,17560.759790,17094.502401,-20521.360102,-21320.703187,-17765.300604,-24171.511730,-4143.342870,-25171.551129,20729.074863,26001.247883,-22750.991315,-15595.214438,-259.593160,17574.550816,-23224.557725,-14681.586883,0.004000,-0.012000,1.008000,192.000000,0.000000,0.000000,0.000000,0.000000,0.000000,0.000000,0.000000,0.000000,0.000000,1771494517.687466,0.000000
108.000000,17498.107850,17029.324714,-20581.374536,-21379.108295,-17825.136223,-24231.772033,-4205.391312,-25231.587914,20714.635636,25984.215854,-22763.016553,-15609.407796,-272.288951,17561.028011,-23229.251591,-14688.426517,0.004000,-0.012000,1.008000,192.000000,0.000000,0.000000,0.000000,0.000000,0.000000,0.000000,0.000000,0.000000,0.000000,1771494517.687477,0.000000
110.000000,17526.002827,17060.237176,-20546.036428,-21341.579716,-17790.647482,-24191.270672,-4167.192181,-25200.183713,20682.069144,25947.894269,-22796.007728,-15644.924718,-305.704809,17519.878449,-23261.840434,-14715.047445,0.004000,-0.012000,1.008000,192.000000,0.000000,0.000000,0.000000,0.000000,0.000000,0.000000,0.000000,0.000000,0.000000,1771494517.687488,0.000000
112.000000,17513.396444,17048.726028,-20561.861463,-21348.464054,-17802.315092,-24186.107419,-4175.931713,-25213.393594,20720.312979,25996.084630,-22753.517062,-15597.807240,-258.229704,17570.236930,-23212.577190,-14659.369249,0.004000,-0.012000,1.008000,192.000000,0.000000,0.000000,127.500000,104.000000,15.500000,48.000000,0.000000,0.000000,0.000000,1771494517.687500,0.000000
114.000000,17480.852304,17015.176060,-20595.210266,-21379.041240,-17833.696942,-24199.496114,-4211.225118,-25246.116548,20663.852473,25937.366597,-22812.480964,-15656.994660,-321.395734,17518.783214,-23268.478902,-14696.227276,0.004000,-0.012000,1.008000,192.000000,0.000000,0.000000,0.000000,0.000000,0.000000,0.000000,0.000000,0.000000,0.000000,1771494517.687513,0.000000
116.000000,17545.247679,17082.231293,-20532.379512,-21322.536030,-17768.832179,-24122.337892,-4148.528474,-25185.923300,20704.264427,25982.025383,-22771.711382,-15616.649761,-274.658236,17566.794761,-23227.105823,-14651.702601,0.004000,-0.012000,1.008000,192.000000,0.000000,0.000000,0.000000,0.000000,0.000000,0.000000,0.000000,0.000000,0.000000,1771494517.687525,0.000000
118.000000,17501.639426,17031.828109,-20582.447419,-21376.336679,-17811.546363,-24165.365000,-4205.011333,-25232.392577,20709.315921,25990.094363,-22769.565614,-15613.274647,-273.160669,17567.912348,-23228.759852,-14651.903767,0.004000,-0.012000,1.008000,192.000000,0.000000,0.000000,0.000000,0.000000,0.000000,0.000000,0.000000,0.000000,0.000000,1771494517.687536,0.000000
120.000000,17557.764656,17087.305139,-20529.920820,-21329.912106,-17758.393915,-24121.153250,-4154.831666,-25179.865978,20691.926264,25967.519101,-22787.201141,-15636.654572,-291.220879,17540.531461,-23254.620821,-14681.095145,0.004000,-0.012000,1.008000,192.000000,0.000000,0.000000,0.000000,0.000000,0.000000,0.000000,0.000000,0.000000,0.000000,1771494517.687546,0.000000
122.000000,17548.756903,17077.559778,-20539.465015,-21342.183213,-17769.435676,-24139.347570,-4163.504143,-25187.644385,20753.505320,26030.998055,-22724.571553,-15574.740240,-225.104418,17601.261151,-23194.516980,-14633.687095,0.004000,-0.012000,1.008000,192.000000,0.000000,0.000000,127.500000,88.000000,15.500000,72.000000,0.000000,0.000000,0.000000,1771494517.687557,0.000000
124.000000,17525.421682,17054.738647,-20565.191873,-21368.178292,-17799.610531,-24183.559320,-4189.789795,-25208.744432,20698.944712,25972.950575,-22779.623899,-15627.333895,-288.672780,17545.806473,-23251.536280,-14693.209790,0.004000,-0.012000,1.008000,192.000000,0.000000,0.000000,0.000000,0.000000,0.000000,0.000000,0.000000,0.000000,0.000000,1771494517.687568,0.000000
126.000000,17577.858875,17110.148622,-20511.324169,-21315.159954,-17749.542624,-24149.182337,-4130.535320,-25155.860204,20743.089407,26013.384880,-22733.288733,-15582.675109,-248.618454,17583.267997,-23211.526658,-14669.248720,0.004000,-0.012000,1.008000,192.000000,0.000000,0.000000,0.000000,0.000000,0.000000,0.000000,0.000000,0.000000,0.000000,1771494517.687579,0.000000
128.000000,17519.409063,17051.654107,-20569.371649,-21372.134551,-17810.652293,-24210.359062,-4190.460347,-25210.376109,20727.309075,25998.833895,-22746.923297,-15593.828630,-263.415308,17569.231101,-23225.071815,-14682.950340,0.004000,-0.012000,1.008000,192.000000,0.000000,0.000000,0.000000,0.000000,0.000000,0.000000,0.000000,0.000000,0.000000,1771494517.687589,0.000000
130.000000,17556.490607,17087.215732,-20528.646771,-21333.846013,-17770.933243,-24180.430076,-4149.087268,-25172.355792,20701.179886,25966.088589,-22773.588928,-15624.674037,-291.489099,17536.508147,-23254.777283,-14714.823927,0.004000,-0.012000,1.008000,192.000000,0.000000,0.000000,0.000000,0.000000,0.000000,0.000000,0.000000,0.000000,0.000000,1771494517.687600,0.000000
132.000000,17544.063037,17073.916444,-20538.414483,-21345.044237,-17782.198522,-24190.018975,-4159.369070,-25185.811542,20751.471311,26018.168154,-22724.236277,-15575.835475,-242.449372,17587.268959,-23203.010643,-14670.768639,0.004000,-0.012000,1.008000,192.000000,0.000000,0.000000,127.500000,88.000000,15.500000,64.000000,0.000000,0.000000,0.000000,1771494517.687612,0.000000
134.000000,17508.859039,17040.455883,-20568.410524,-21370.279356,-17816.284933,-24216.997530,-4190.505050,-25217.908647,20694.854342,25960.254784,-22783.736620,-15635.536985,-303.804911,17528.662685,-23259.292335,-14717.819061,0.004000,-0.012000,1.008000,192.000000,0.000000,0.000000,0.000000,0.000000,0.000000,0.000000,0.000000,0.000000,0.000000,1771494517.687622,0.000000
136.000000,17554.814226,17085.248778,-20519.370797,-21319.563248,-17769.815656,-24165.029724,-4135.072724,-25171.908757,20725.565639,26001.113773,-22744.732826,-15597.896647,-261.358948,17567.889997,-23219.081547,-14677.027127,0.004000,-0.012000,1.008000,192.000000,0.000000,0.000000,0.000000,0.000000,0.000000,0.000000,0.000000,0.000000,0.000000,1771494517.687633,0.000000
138.000000,17492.944597,17022.976818,-20583.319137,-21374.146208,-17829.114834,-24212.571885,-4197.255277,-25230.135051,20699.838781,25981.421886,-22767.710420,-15617.432072,-288.493966,17551.975554,-23236.426501,-14683.218561,0.004000,-0.012000,1.008000,192.000000,0.000000,0.000000,0.000000,0.000000,0.000000,0.000000,0.000000,0.000000,0.000000,1771494517.687644,0.000000
140.000000,17529.892031,17064.506360,-20547.489291,-21333.913068,-17788.054679,-24155.306715,-4157.357413,-25191.645347,20673.620185,25956.879670,-22796.879446,-15640.566127,-317.037143,17529.333237,-23266.355487,-14700.429404,0.004000,-0.012000,1.008000,192.000000,0.000000,0.000000,0.000000,0.000000,0.000000,0.000000,0.000000,0.000000,0.000000,1771494517.687654,0.000000
142.000000,17533.133034,17066.987403,-20548.562175,-21337.578754,-17788.859342,-24141.716855,-4160.911341,-25191.645347,20726.839689,26015.016558,-22741.983562,-15584.977339,-259.436698,17586.732517,-23213.650073,-14646.762865,0.004000,-0.011000,1.009000,192.000000,0.000000,16.000000,127.500000,88.000000,15.500000,72.000000,0.000000,0.000000,0.000000,1771494517.687665,0.000000
144.000000,17505.215705,17038.533633,-20573.976108,-21367.440685,-17802.069223,-24161.229928,-4194.483661,-25221.931961,20685.734831,25963.451083,-22789.816295,-15634.978191,-305.928326,17540.978496,-23261.415751,-14687.979482,0.004000,-0.011000,1.009000,192.000000,0.000000,0.000000,0.000000,0.000000,0.000000,0.000000,0.000000,0.000000,0.000000,1771494517.687676,0.000000
146.000000,17560.245700,17092.982482,-20514.676930,-21317.193963,-17745.787531,-24106.691671,-4136.212663,-25169.986507,20726.504412,25999.839723,-22750.812501,-15598.254275,-260.062547,17584.318529,-23214.074756,-14655.278880,0.004000,-0.011000,1.009000,192.000000,0.000000,0.000000,0.000000,0.000000,0.000000,0.000000,0.000000,0.000000,0.000000,1771494517.687688,0.000000
148.000000,17505.752147,17037.348990,-20567.069419,-21371.531054,-17800.102270,-24171.019992,-4191.712045,-25221.104946,20725.565639,25992.396592,-22754.321725,-15604.244543,-265.874000,17575.355479,-23216.198172,-14664.823075,0.004000,-0.011000,1.009000,192.000000,0.000000,0.000000,0.000000,0.000000,0.000000,0.000000,0.000000,0.000000,0.000000,1771494517.687699,0.000000
150.000000,17541.291421,17073.983499,-20530.367855,-21339.724522,-17765.680583,-24154.949087,-4153.602320,-25187.174998,20694.027328,25961.528833,-22784.407173,-15635.916965,-297.144091,17538.340990,-23246.730655,-14705.682064,0.004000,-0.011000,1.009000,192.000000,0.000000,0.000000,0.000000,0.000000,0.000000,0.000000,0.000000,0.000000,0.000000,1771494517.687710,0.000000
152.000000,17534.943525,17063.992270,-20538.235669,-21345.468920,-17776.476476,-24175.155064,-4159.056146,-25193.969928,20739.490776,26009.026290,-22735.859184,-15585.916112,-243.522256,17588.833581,-23195.232236,-14668.511113,0.006000,-0.009500,1.012500,192.000000,0.000000,32.000000,127.500000,96.000000,15.500000,96.000000,0.000000,0.000000,0.000000,1771494517.687720,0.000000
154.000000,17505.863906,17036.141996,-20569.550463,-21370.122894,-17805.913723,-24210.001434,-4190.773271,-25220.836725,20689.892255,25960.388894,-22787.335251,-15635.469930,-304.922498,17533.378903,-23250.284582,-14717.640247,0.006000,-0.009500,1.012500,192.000000,0.000000,0.000000,0.000000,0.000000,0.000000,0.000000,0.000000,0.000000,0.000000,1771494517.687732,0.000000
156.000000,17557.518787,17090.881418,-20519.571962,-21315.629341,-17759.757371,-24158.659477,-4135.005669,-25168.935975,20724.962142,25997.224569,-22750.834853,-15596.689653,-266.455146,17572.449752,-23217.002835,-14689.409994,0.006000,-0.009500,1.012500,192.000000,0.000000,0.000000,0.000000,0.000000,0.000000,0.000000,0.000000,0.000000,0.000000,1771494517.687742,0.000000
158.000000,17502.555847,17034.107987,-20578.602919,-21366.703077,-17820.911744,-24219.612684,-4191.622638,-25219.741490,20715.417947,25993.692993,-22757.585079,-15600.154173,-277.809832,17564.805456,-23228.178707,-14691.980444,0.006000,-0.009500,1.012500,192.000000,0.000000,0.000000,0.000000,0.000000,0.000000,0.000000,0.000000,0.000000,0.000000,1771494517.687753,0.000000
160.000000,17535.547022,17070.429572,-20540.604954,-21330.627362,-17791.318034,-24182.844065,-4152.082402,-25185.118638,20679.453990,25962.802883,-22789.570426,-15630.597249,-320.658126,17529.713217,-23264.097960,-14719.875422,0.006000,-0.009500,1.012500,192.000000,0.000000,0.000000,0.000000,0.000000,0.000000,0.000000,0.000000,0.000000,0.000000,1771494517.687764,0.000000
162.000000,17527.053359,17058.516092,-20550.774998,-21340.350370,-17802.225685,-24182.799361,-4159.190256,-25196.249806,20727.979628,26007.305206,-22737.401454,-15585.290263,-266.678663,17581.055174,-23212.711300,-14664.823075,0.008000,-0.011750,1.011250,192.000000,0.000000,40.000000,127.500000,72.000000,15.500000,72.000000,0.000000,0.000000,0.000000,1771494517.687775,0.000000
164.000000,17489.435373,17021.680417,-20583.743821,-21376.515493,-17826.276162,-24204.234684,-4197.769367,-25231.543211,20670.781514,25946.396702,-22799.092269,-15645.662325,-327.877739,17527.053359,-23269.350620,-14706.889058,0.008000,-0.011750,1.011250,192.000000,0.000000,0.000000,0.000000,0.000000,0.000000,0.000000,0.000000,0.000000,0.000000,1771494517.687785,0.000000
166.000000,17551.126188,17085.427592,-20524.623457,-21321.016111,-17759.712667,-24137.358265,-4138.537245,-25175.730905,20707.594837,25987.613319,-22759.775550,-15606.703235,-280.424986,17571.488627,-23222.031977,-14667.795857,0.008000,-0.011750,1.011250,192.000000,0.000000,0.000000,0.000000,0.000000,0.000000,0.000000,0.000000,0.000000,0.000000,1771494517.687796,0.000000
168.000000,17503.852249,17034.577374,-20579.027603,-21370.301708,-17811.121680,-24176.876149,-4194.103681,-25224.994150,20713.182773,25985.802828,-22759.395571,-15606.904400,-281.073187,17571.935662,-23224.423614,-14667.147656,0.008000,-0.011750,1.011250,192.000000,0.000000,0.000000,0.000000,0.000000,0.000000,0.000000,0.000000,0.000000,0.000000,1771494517.687807,0.000000
170.000000,17544.040685,17079.906712,-20541.029637,-21331.364969,-17771.112057,-24127.076462,-4154.854018,-25186.325632,20687.321804,25958.824272,-22789.592777,-15635.514633,-312.320925,17547.818130,-23255.380780,-14697.255456,0.008000,-0.011750,1.011250,192.000000,0.000000,0.000000,0.000000,0.000000,0.000000,0.000000,0.000000,0.000000,0.000000,1771494517.687818,0.000000
172.000000,17543.571299,17077.559778,-20543.443625,-21335.723559,-17778.622243,-24146.388369,-4156.619806,-25188.359641,20742.128282,26016.536476,-22733.422844,-15578.428278,-253.178209,17609.352482,-23199.434364,-14650.964993,0.009000,-0.010875,1.007625,192.000000,0.000000,40.000000,127.500000,88.000000,15.500000,48.000000,0.000000,0.000000,0.000000,1771494517.687829,0.000000
174.000000,17513.597609,17046.759075,-20571.785637,-21368.982955,-17808.037139,-24192.835294,-4191.153251,-25218.243923,20694.519066,25971.073028,-22783.088420,-15630.463139,-303.804911,17550.902671,-23252.229184,-14709.213639,0.009000,-0.010875,1.007625,192.000000,0.000000,0.000000,0.000000,0.000000,0.000000,0.000000,0.000000,0.000000,0.000000,1771494517.687840,0.000000
176.000000,17564.894863,17102.236104,-20519.124927,-21314.958789,-17753.297717,-24149.696428,-4134.290413,-25167.058428,20724.492755,26006.008805,-22749.359637,-15593.895685,-273.965332,17584.542046,-23213.493611,-14687.063061,0.009000,-0.010875,1.007625,192.000000,0.000000,0.000000,0.000000,0.000000,0.000000,0.000000,0.000000,0.000000,0.000000,1771494517.687851,0.000000
178.000000,17507.964970,17043.316906,-20579.899321,-21368.960603,-17817.179002,-24209.375585,-4193.388426,-25221.306112,20716.557886,26004.734755,-22756.266326,-15598.321330,-285.476480,17584.832619,-23224.580076,-14693.053328,0.009000,-0.010875,1.007625,192.000000,0.000000,0.000000,0.000000,0.000000,0.000000,0.000000,0.000000,0.000000,0.000000,1771494517.687863,0.000000
180.000000,17545.314735,17082.477162,-20543.756550,-21330.448548,-17783.338461,-24176.227948,-4153.781134,-25184.693955,20683.164380,25966.177996,-22787.178789,-15630.440787,-343.814533,17545.538252,-23259.046466,-14721.484747,0.009000,-0.010875,1.007625,192.000000,0.000000,0.000000,0.000000,0.000000,0.000000,0.000000,0.000000,0.000000,0.000000,1771494517.687874,0.000000
182.000000,17537.156348,17075.056383,-20552.540785,-21334.203641,-17795.676624,-24186.800323,-4158.765573,-25190.460705,20730.281857,26017.765822,-22738.273172,-15577.109525,-307.202376,17598.824811,-23208.352710,-14670.858046,0.009500,-0.009437,1.004812,192.000000,0.000000,40.000000,127.500000,96.000000,15.500000,40.000000,0.000000,0.000000,0.000000,1771494517.687885,0.000000
184.000000,17498.487830,17032.565717,-20589.510571,-21365.339621,-17834.591011,-24217.377510,-4196.182394,-25227.095214,20679.163418,25962.400551,-22794.688975,-15631.983057,-367.462679,17541.783159,-23267.920109,-14717.595544,0.009500,-0.009437,1.004812,192.000000,0.000000,0.000000,0.000000,0.000000,0.000000,0.000000,0.000000,0.000000,0.000000,1771494517.687895,0.000000
186.000000,17553.316659,17086.813401,-20533.966486,-21311.829545,-17777.974043,-24161.676963,-4137.821989,-25175.060353,20705.270255,25994.520008,-22762.167187,-15600.981188,-334.739725,17579.959939,-23231.643228,-14680.022261,0.009500,-0.009437,1.004812,192.000000,0.000000,0.000000,0.000000,0.000000,0.000000,0.000000,0.000000,0.000000,0.000000,1771494517.687906,0.000000
188.000000,17499.895990,17029.414121,-20587.230693,-21369.877025,-17823.616305,-24204.122925,-4197.277629,-25229.330388,20706.387842,25987.076877,-22767.196329,-15609.787775,-337.846617,17575.243720,-23233.565478,-14676.110706,0.009500,-0.009437,1.004812,192.000000,0.000000,0.000000,0.000000,0.000000,0.000000,0.000000,0.000000,0.000000,0.000000,1771494517.687917,0.000000
190.000000,17545.068865,17074.430534,-20542.571907,-21333.935420,-17773.123714,-24152.490396,-4154.474038,-25189.477228,20679.565749,25956.432635,-22794.599568,-15640.923755,-359.639568,17548.533386,-23257.258327,-14698.104822,0.009500,-0.009437,1.004812,192.000000,0.000000,0.000000,0.000000,0.000000,0.000000,0.000000,0.000000,0.000000,0.000000,1771494517.687927,0.000000
192.000000,17542.274897,17070.518979,-20546.259945,-21344.060760,-17776.767048,-24148.087102,-4159.994919,-25194.595777,20737.345009,26015.821220,-22737.401454,-15586.296092,-299.736893,17610.000683,-23199.009681,-14649.847406,0.007750,-0.008719,1.001406,192.000000,0.000000,24.000000,127.500000,96.000000,15.500000,24.000000,0.000000,0.000000,0.000000,1771494517.687938,0.000000
194.000000,17518.626752,17042.668705,-20571.338602,-21370.100542,-17800.325787,-24168.471893,-4189.499222,-25218.221571,20696.374261,25967.116769,-22786.731754,-15636.140482,-347.882551,17562.324412,-23249.122292,-14696.540200,0.007750,-0.008719,1.001406,192.000000,0.000000,0.000000,0.000000,0.000000,0.000000,0.000000,0.000000,0.000000,0.000000,1771494518.167596,0.000000
196.000000,17577.188322,17105.521811,-20513.089956,-21314.534106,-17746.323973,-24117.979302,-4126.802579,-25158.877690,20729.968933,26007.260502,-22744.062274,-15592.442822,-307.247079,17600.724709,-23209.336187,-14667.862912,0.007750,-0.008719,1.001406,192.000000,0.000000,0.000000,0.000000,0.000000,0.000000,0.000000,0.000000,0.000000,0.000000,1771494518.167694,0.000000
198.000000,17521.353665,17047.273165,-20568.365820,-21370.636984,-17806.092537,-24181.525312,-4185.230039,-25214.913513,20724.805680,26009.942712,-22745.358675,-15595.907342,-310.376324,17595.002663,-23215.348806,-14678.904674,0.007750,-0.008719,1.001406,192.000000,0.000000,0.000000,0.000000,0.000000,0.000000,0.000000,0.000000,0.000000,0.000000,1771494518.167766,0.000000
200.000000,17553.629584,17082.991252,-20533.228878,-21334.874193,-17770.240339,-24160.067637,-4148.997861,-25182.235263,20692.708575,25979.790208,-22780.361507,-15632.050113,-343.635719,17556.065924,-23248.876423,-14716.433253,0.007750,-0.008719,1.001406,192.000000,0.000000,0.000000,0.000000,0.000000,0.000000,0.000000,0.000000,0.000000,0.000000,1771494518.167848,0.000000
202.000000,17550.030953,17077.783296,-20539.330904,-21338.629286,-17777.258787,-24170.237681,-4150.540131,-25185.498617,20743.894070,26037.614171,-22726.762024,-15575.924882,-286.035274,17612.168802,-23197.400355,-14671.886226,0.007750,-0.008719,1.001406,192.000000,0.000000,0.000000,0.000000,0.000000,0.000000,0.000000,0.000000,0.000000,0.000000,1771494518.167909,0.000000
204.000000,17517.017426,17042.847519,-20571.651527,-21369.944080,-17813.535668,-24205.195809,-4185.677074,-25217.349853,20689.266406,25978.694973,-22781.657908,-15632.363037,-342.026394,17555.574185,-23255.291373,-14720.434215,0.008000,-0.012000,0.996000,192.000000,0.000000,32.000000,127.500000,80.000000,15.500000,16.000000,0.000000,0.000000,0.000000,1771494518.167980,0.000000
206.000000,17563.643165,17095.128250,-20520.220163,-21318.624475,-17766.775819,-24158.570070,-4129.618899,-25169.986507,20726.616171,26012.088479,-22745.761007,-15600.154173,-305.794216,17591.627549,-23220.087376,-14689.499401,0.008000,-0.012000,0.996000,192.000000,0.000000,0.000000,0.000000,0.000000,0.000000,0.000000,0.000000,0.000000,0.000000,1771494518.168052,0.000000
208.000000,17505.550981,17037.863080,-20581.508646,-21372.715696,-17829.383055,-24215.209391,-4191.130899,-25229.062167,20713.719215,26002.030194,-22758.322687,-15612.760557,-317.081847,17579.267034,-23231.397358,-14695.735537,0.008000,-0.012000,0.996000,192.000000,0.000000,0.000000,0.000000,0.000000,0.000000,0.000000,0.000000,0.000000,0.000000,1771494518.168122,0.000000
210.000000,17528.148595,17061.108894,-20543.421274,-21329.487423,-17790.312206,-24171.198806,-4149.377841,-25196.316862,20677.151761,25970.670697,-22792.587911,-15645.617622,-353.671653,17551.506168,-23263.293298,-14717.774358,0.008000,-0.012000,0.996000,192.000000,0.000000,0.000000,0.000000,0.000000,0.000000,0.000000,0.000000,0.000000,0.000000,1771494518.168189,0.000000
212.000000,17519.319656,17055.230386,-20551.937288,-21330.739120,-17790.692185,-24161.296983,-4155.390460,-25203.491772,20719.687130,26015.329482,-22745.984524,-15596.712005,-297.032332,17606.580866,-23205.245817,-14658.318717,0.008000,-0.012000,0.996000,192.000000,0.000000,0.000000,0.000000,0.000000,0.000000,0.000000,0.000000,0.000000,0.000000,1771494518.168205,0.000000
214.000000,17489.122449,17019.557002,-20584.816704,-21362.143321,-17819.145956,-24186.710916,-4193.299019,-25235.745339,20671.764990,25970.022496,-22799.941635,-15647.361058,-351.391775,17557.876415,-23258.264155,-14693.522715,0.006000,-0.010000,1.000000,192.000000,0.000000,24.000000,127.500000,88.000000,15.500000,32.000000,0.000000,0.000000,0.000000,1771494518.168221,0.000000
216.000000,17545.895880,17078.498552,-20526.076320,-21311.404861,-17752.135426,-24123.678997,-4132.837550,-25178.927204,20702.699805,26005.181790,-22762.815388,-15614.235772,-313.729085,17596.120250,-23217.025187,-14660.531540,0.006000,-0.010000,1.000000,192.000000,0.000000,0.000000,0.000000,0.000000,0.000000,0.000000,0.000000,0.000000,0.000000,1771494518.168237,0.000000
218.000000,17496.722042,17025.927249,-20575.965414,-21366.658374,-17801.666892,-24174.551567,-4186.906420,-25224.234190,20707.818354,26006.522895,-22761.384876,-15613.386406,-312.097408,17600.277674,-23219.327416,-14670.500418,0.006000,-0.010000,1.000000,192.000000,0.000000,0.000000,0.000000,0.000000,0.000000,0.000000,0.000000,0.000000,0.000000,1771494518.168252,0.000000
220.000000,17545.158272,17074.877569,-20531.060759,-21330.694417,-17765.144141,-24140.576916,-4144.974547,-25181.050620,20694.452011,25981.019554,-22782.417867,-15636.498110,-334.180931,17574.930796,-23245.881289,-14706.956113,0.006000,-0.010000,1.000000,192.000000,0.000000,0.000000,0.000000,0.000000,0.000000,0.000000,0.000000,0.000000,0.000000,1771494518.168268,0.000000
222.000000,17535.144691,17066.048630,-20537.609820,-21338.003437,-17771.849665,-24154.770274,-4147.455591,-25186.191521,20741.927116,26035.960142,-22728.684274,-15581.088135,-275.485250,17630.631343,-23193.757021,-14666.477104,0.006000,-0.010000,1.000000,192.000000,0.000000,0.000000,0.000000,0.000000,0.000000,0.000000,0.000000,0.000000,0.000000,1771494518.168283,0.000000
224.000000,17501.997054,17035.024409,-20569.706925,-21370.458170,-17803.410328,-24197.931492,-4183.352492,-25218.869772,20696.061337,25992.016613,-22782.060240,-15632.810072,-326.670745,17576.361308,-23249.144643,-14721.820023,0.006000,-0.010000,1.002000,192.000000,0.000000,24.000000,127.500000,88.000000,15.500000,40.000000,0.000000,0.000000,0.000000,1771494518.168296,0.000000
226.000000,17551.439113,17087.975691,-20515.503945,-21317.328074,-17748.805016,-24148.489433,-4125.081494,-25167.527815,20720.715311,26017.229380,-22751.661867,-15599.416566,-296.160614,17610.626532,-23210.565533,-14696.875476,0.006000,-0.010000,1.002000,192.000000,0.000000,0.000000,0.000000,0.000000,0.000000,0.000000,0.000000,0.000000,0.000000,1771494518.168310,0.000000
228.000000,17494.263350,17031.068150,-20571.316251,-21369.251176,-17809.490002,-24209.800268,-4180.424414,-25220.456746,20715.708520,26012.334348,-22755.841643,-15601.495278,-300.541556,17606.580866,-23214.342977,-14698.417747,0.006000,-0.010000,1.002000,192.000000,0.000000,0.000000,0.000000,0.000000,0.000000,0.000000,0.000000,0.000000,0.000000,1771494518.168324,0.000000
230.000000,17521.130147,17060.237176,-20539.822643,-21335.164766,-17777.124676,-24179.625413,-4145.689803,-25191.712402,20678.671679,25973.509368,-22793.996071,-15636.185185,-340.528827,17566.705354,-23250.619859,-14730.291334,0.006000,-0.010000,1.002000,192.000000,0.000000,0.000000,0.000000,0.000000,0.000000,0.000000,0.000000,0.000000,0.000000,1771494518.168339,0.000000
232.000000,17515.139880,17052.190548,-20547.086960,-21337.265830,-17785.305415,-24181.100629,-4148.953158,-25198.507333,20725.163308,26017.519953,-22746.006876,-15589.313577,-287.577544,17616.974427,-23199.501419,-14678.770563,0.006000,-0.010000,1.002000,192.000000,0.000000,0.000000,0.000000,0.000000,0.000000,0.000000,0.000000,0.000000,0.000000,1771494518.168355,0.000000
234.000000,17476.046679,17017.657103,-20582.022736,-21366.725429,-17821.872869,-24206.179286,-4185.364149,-25234.068958,20676.570615,25966.379162,-22800.075746,-15643.382447,-348.709565,17564.894863,-23255.626649,-14720.322456,0.006000,-0.012000,1.008000,192.000000,0.000000,24.000000,127.500000,80.000000,15.500000,64.000000,0.000000,0.000000,0.000000,1771494518.168369,0.000000
236.000000,17532.708351,17077.537427,-20527.640942,-21308.007396,-17768.429848,-24141.314523,-4126.824931,-25181.229434,20703.392709,25998.520970,-22767.866882,-15609.832479,-314.734914,17602.870477,-23218.880381,-14682.548008,0.006000,-0.012000,1.008000,192.000000,0.000000,0.000000,0.000000,0.000000,0.000000,0.000000,0.000000,0.000000,0.000000,1771494518.168384,0.000000
238.000000,17464.423771,17010.035158,-20589.599978,-21363.104446,-17822.051683,-24178.284309,-4191.130899,-25243.702560,20688.618206,25993.313014,-22777.813408,-15618.236735,-321.865120,17602.356386,-23224.267152,-14670.858046,0.006000,-0.012000,1.008000,192.000000,0.000000,0.000000,0.000000,0.000000,0.000000,0.000000,0.000000,0.000000,0.000000,1771494518.168399,0.000000
240.000000,17505.260409,17051.654107,-20554.507739,-21325.754681,-17783.472572,-24125.377730,-4157.200951,-25208.342100,20654.397685,25957.483167,-22815.073766,-15655.832369,-359.818382,17571.600386,-23260.476978,-14689.365290,0.006000,-0.012000,1.008000,192.000000,0.000000,0.000000,0.000000,0.000000,0.000000,0.000000,0.000000,0.000000,0.000000,1771494518.168414,0.000000
242.000000,17507.897914,17055.878586,-20557.413466,-21330.537955,-17785.707746,-24125.467137,-4160.307844,-25208.766783,20716.960218,26025.633636,-22756.266326,-15594.677996,-289.164518,17636.554555,-23203.480030,-14630.960182,0.006000,-0.012000,1.008000,192.000000,0.000000,0.000000,0.000000,0.000000,0.000000,0.000000,0.000000,0.000000,0.000000,1771494518.168432,0.000000
244.000000,17476.694879,17022.842708,-20589.443515,-21367.239519,-17816.709616,-24173.523387,-4197.299981,-25238.919287,20667.898139,25975.342211,-22809.284664,-15646.802264,-345.110934,17580.809305,-23257.973583,-14688.068889,0.004000,-0.014000,1.006000,192.000000,0.000000,16.000000,127.500000,72.000000,15.500000,56.000000,0.000000,0.000000,0.000000,1771494518.168448,0.000000
246.000000,17539.883261,17085.651110,-20527.685646,-21315.785803,-17758.572728,-24131.189183,-4134.402172,-25177.854321,20706.365491,26011.306168,-22768.582138,-15607.910229,-302.553213,17617.466166,-23221.674350,-14674.657842,0.004000,-0.014000,1.006000,192.000000,0.000000,0.000000,0.000000,0.000000,0.000000,0.000000,0.000000,0.000000,0.000000,1771494518.168463,0.000000
248.000000,17492.899894,17041.729932,-20579.117010,-21371.486350,-17815.346159,-24199.719632,-4189.633332,-25224.323597,20711.461688,26015.530648,-22764.670582,-15605.540944,-298.775768,17610.872401,-23225.027111,-14692.874514,0.004000,-0.014000,1.006000,192.000000,0.000000,0.000000,0.000000,0.000000,0.000000,0.000000,0.000000,0.000000,0.000000,1771494518.168478,0.000000
250.000000,17523.208859,17074.341127,-20539.710884,-21339.456301,-17776.141200,-24171.936413,-4155.010480,-25194.059335,20685.623072,25987.278043,-22792.654966,-15637.794511,-333.152751,17573.679098,-23252.944440,-14732.034770,0.004000,-0.014000,1.006000,192.000000,0.000000,0.000000,0.000000,0.000000,0.000000,0.000000,0.000000,0.000000,0.000000,1771494518.168493,0.000000
252.000000,17524.572316,17070.742496,-20541.364913,-21343.591373,-17780.879769,-24180.743001,-4155.859847,-25196.830952,20733.612267,26039.201145,-22742.318838,-15586.497258,-274.680588,17624.261096,-23196.953320,-14689.253532,0.004000,-0.014000,1.006000,192.000000,0.000000,0.000000,0.000000,0.000000,0.000000,0.000000,0.000000,0.000000,0.000000,1771494518.168521,0.000000
254.000000,17489.033042,17032.543365,-20577.708850,-21376.113162,-17813.021578,-24209.129716,-4190.460347,-25230.403272,20685.913645,25986.249862,-22794.353699,-15636.498110,-329.330603,17566.772409,-23248.809367,-14736.773340,0.006000,-0.012000,1.010000,192.000000,0.000000,24.000000,127.500000,80.000000,15.500000,72.000000,0.000000,0.000000,0.000000,1771494518.168536,0.000000
0.000000,17531.769577,17077.984462,-20530.636076,-21326.514641,-17767.155798,-24156.267840,-4137.576120,-25188.784324,20708.086575,26010.948540,-22767.196329,-15609.921886,-296.652352,17595.092070,-23214.745309,-14704.676235,0.006000,-0.012000,1.010000,192.000000,0.000000,0.000000,0.000000,0.000000,0.000000,0.000000,0.000000,0.000000,0.000000,1771494518.168552,0.000000
2.000000,17471.464571,17018.282952,-20593.198609,-21377.387211,-17827.729026,-24201.686585,-4196.048283,-25247.569412,20694.295549,26000.689089,-22780.987356,-15622.707084,-312.276222,17585.346709,-23226.904658,-14701.301122,0.006000,-0.012000,1.010000,192.000000,0.000000,0.000000,0.000000,0.000000,0.000000,0.000000,0.000000,0.000000,0.000000,1771494518.168567,0.000000
4.000000,17501.460612,17047.451979,-20558.285184,-21338.785748,-17796.436584,-24156.290192,-4161.067803,-25216.589894,20657.772798,25960.165377,-22819.946446,-15661.375601,-351.704699,17549.159235,-23265.282603,-14724.725750,0.006000,-0.012000,1.010000,192.000000,0.000000,0.000000,0.000000,0.000000,0.000000,0.000000,0.000000,0.000000,0.000000,1771494518.168582,0.000000
6.000000,17501.594722,17045.440322,-20559.894509,-21333.086054,-17795.386052,-24146.701294,-4158.966739,-25217.148687,20705.292607,26015.173020,-22766.525777,-15604.736281,-293.634867,17614.180459,-23210.811402,-14663.012584,0.006000,-0.012000,1.010000,192.000000,0.000000,0.000000,0.000000,0.000000,0.000000,0.000000,0.000000,0.000000,0.000000,1771494518.168597,0.000000
8.000000,17464.468475,17010.929228,-20593.533885,-21362.523301,-17827.147880,-24174.685678,-4193.544888,-25249.670476,20659.359772,25965.127464,-22819.834688,-15653.351325,-347.569626,17564.045496,-23260.544033,-14697.322511,0.005000,-0.009000,1.009000,192.000000,0.000000,16.000000,127.500000,104.000000,15.500000,64.000000,0.000000,0.000000,0.000000,1771494518.168613,0.000000
10.000000,17517.039778,17063.232310,-20539.912050,-21311.717786,-17771.916720,-24121.197953,-4136.167960,-25197.948539,20688.618206,25994.631767,-22790.933882,-15624.294057,-313.594975,17587.514828,-23227.530507,-14667.058249,0.005000,-0.009000,1.009000,192.000000,0.000000,0.000000,0.000000,0.000000,0.000000,0.000000,0.000000,0.000000,0.000000,1771494518.168628,0.000000
12.000000,17472.224530,17017.344179,-20588.504742,-21366.591318,-17822.185793,-24178.172550,-4189.767443,-25242.450862,20693.513238,25996.710479,-22789.838647,-15621.410682,-312.186815,17588.610064,-23227.374044,-14669.919273,0.005000,-0.009000,1.009000,192.000000,0.000000,0.000000,0.000000,0.000000,0.000000,0.000000,0.000000,0.000000,0.000000,1771494518.168643,0.000000
14.000000,17517.777385,17062.070019,-20544.091826,-21337.042312,-17781.885598,-24156.804282,-4150.271910,-25200.004900,20670.960328,25971.028324,-22811.765708,-15646.846968,-337.846617,17559.597499,-23257.481844,-14712.097014,0.005000,-0.009000,1.009000,192.000000,0.000000,0.000000,0.000000,0.000000,0.000000,0.000000,0.000000,0.000000,0.000000,1771494518.168658,0.000000
16.000000,17522.583011,17066.719182,-20540.515547,-21343.479615,-17778.242264,-24166.929623,-4150.093097,-25198.239112,20736.473290,26031.668607,-22748.107940,-15587.547790,-272.043082,17616.773262,-23197.199189,-14674.836656,0.005000,-0.009000,1.009000,192.000000,0.000000,0.000000,0.000000,0.000000,0.000000,0.000000,0.000000,0.000000,0.000000,1771494518.168674,0.000000
18.000000,17489.815353,17031.179909,-20572.724411,-21375.599071,-17810.987569,-24205.419326,-4185.498260,-25229.218630,20691.054546,25986.585139,-22800.008690,-15639.381485,-326.715449,17563.889034,-23250.105768,-14729.039637,0.006500,-0.008500,1.010500,192.000000,0.000000,32.000000,127.500000,96.000000,15.500000,80.000000,0.000000,0.000000,0.000000,1771494518.168692,0.000000
20.000000,17539.659743,17083.684156,-20514.878096,-21322.938362,-17759.422095,-24159.262974,-4127.294317,-25176.401457,20726.862040,26020.850363,-22762.725981,-15602.881086,-287.465785,17600.456488,-23212.063099,-14702.239895,0.006500,-0.008500,1.010500,192.000000,0.000000,0.000000,0.000000,0.000000,0.000000,0.000000,0.000000,0.000000,0.000000,1771494518.168707,0.000000
22.000000,17483.914493,17027.871850,-20573.551425,-21373.967394,-17815.614380,-24212.817754,-4185.319446,-25230.090348,20721.318808,26020.425680,-22767.419847,-15605.764461,-291.645562,17596.142602,-23213.806535,-14703.849221,0.006500,-0.008500,1.010500,192.000000,0.000000,0.000000,0.000000,0.000000,0.000000,0.000000,0.000000,0.000000,0.000000,1771494518.168723,0.000000
24.000000,17515.229287,17058.717258,-20541.029637,-21338.808100,-17777.594063,-24172.316393,-4151.858884,-25199.133181,20685.779534,25985.288737,-22805.551923,-15642.533081,-330.224673,17557.138807,-23250.061065,-14732.727675,0.006500,-0.008500,1.010500,192.000000,0.000000,0.000000,0.000000,0.000000,0.000000,0.000000,0.000000,0.000000,0.000000,1771494518.168739,0.000000
26.000000,17510.066034,17053.665764,-20546.304649,-21338.696341,-17782.936130,-24162.034590,-4152.171809,-25202.776516,20734.126357,26038.240020,-22752.220661,-15590.095888,-273.428890,17615.499212,-23194.002890,-14675.641319,0.006500,-0.008500,1.010500,192.000000,0.000000,0.000000,0.000000,0.000000,0.000000,0.000000,0.000000,0.000000,0.000000,1771494518.168754,0.000000
28.000000,17470.771667,17016.047778,-20586.515437,-21371.084019,-17816.799023,-24186.107419,-4191.667341,-25239.947467,20683.589063,25989.468514,-22807.429470,-15644.008296,-329.330603,17565.319546,-23252.273888,-14717.796709,0.007250,-0.009250,1.007250,192.000000,0.000000,32.000000,127.500000,88.000000,15.500000,48.000000,0.000000,0.000000,0.000000,1771494518.168770,0.000000
30.000000,17526.002827,17072.240063,-20529.987875,-21315.383472,-17762.573691,-24129.378692,-4133.217529,-25187.510274,20714.143898,26022.124412,-22776.785228,-15613.632275,-295.691227,17604.323340,-23220.400300,-14682.905636,0.007250,-0.009250,1.007250,192.000000,0.000000,0.000000,0.000000,0.000000,0.000000,0.000000,0.000000,0.000000,0.000000,1771494518.168786,0.000000
32.000000,17471.799847,17012.985589,-20583.810876,-21366.144284,-17821.157613,-24179.826579,-4188.560449,-25240.618019,20714.166250,26017.162325,-22778.618071,-15616.962685,-298.060512,17602.714014,-23222.344902,-14677.116534,0.007250,-0.009250,1.007250,192.000000,0.000000,0.000000,0.000000,0.000000,0.000000,0.000000,0.000000,0.000000,0.000000,1771494518.168801,0.000000
34.000000,17511.474194,17057.398505,-20547.578698,-21327.833394,-17790.692185,-24146.656590,-4149.981338,-25203.134144,20688.528799,25987.948595,-22811.989225,-15647.785741,-330.202321,17570.661613,-23256.587774,-14706.576134,0.007250,-0.009250,1.007250,192.000000,0.000000,0.000000,0.000000,0.000000,0.000000,0.000000,0.000000,0.000000,0.000000,1771494518.168817,0.000000
36.000000,17518.403234,17062.382944,-20547.019904,-21328.347484,-17791.116868,-24154.747922,-4149.914283,-25200.451934,20748.610288,26047.650104,-22751.617164,-15586.161981,-270.657274,17628.574983,-23202.921236,-14660.240967,0.007250,-0.009250,1.007250,192.000000,0.000000,0.000000,0.000000,0.000000,0.000000,0.000000,0.000000,0.000000,0.000000,1771494518.168832,0.000000
38.000000,17491.581141,17030.934039,-20577.418277,-21360.981031,-17816.307284,-24188.342594,-4183.576010,-25230.537382,20704.152668,26003.974796,-22800.545132,-15634.955840,-316.813626,17579.781125,-23252.899737,-14711.895849,0.007625,-0.007625,1.005625,192.000000,0.000000,32.000000,127.500000,104.000000,15.500000,48.000000,0.000000,0.000000,0.000000,1771494518.168847,0.000000
40.000000,17548.779255,17085.673462,-20517.962637,-21316.366949,-17757.857473,-24144.153195,-4128.054276,-25178.971908,20737.523822,26029.858116,-22764.067085,-15604.021025,-277.720425,17608.212544,-23213.851239,-14691.220485,0.007625,-0.007625,1.005625,192.000000,0.000000,0.000000,0.000000,0.000000,0.000000,0.000000,0.000000,0.000000,0.000000,1771494518.168863,0.000000
42.000000,17501.304150,17032.185737,-20567.292937,-21370.189949,-17807.053662,-24202.714765,-4180.267952,-25226.983455,20737.367360,26030.774537,-22763.664754,-15605.742110,-279.508564,17605.507982,-23212.018396,-14698.462450,0.007625,-0.007625,1.005625,192.000000,0.000000,0.000000,0.000000,0.000000,0.000000,0.000000,0.000000,0.000000,0.000000,1771494518.168878,0.000000
44.000000,17528.796795,17066.003927,-20536.134605,-21340.328019,-17773.615452,-24173.791608,-4147.857922,-25196.965062,20704.197372,25987.054525,-22801.170981,-15643.605965,-313.885547,17564.470180,-23246.037751,-14735.409884,0.007625,-0.007625,1.005625,192.000000,0.000000,0.000000,0.000000,0.000000,0.000000,0.000000,0.000000,0.000000,0.000000,1771494518.168894,0.000000
46.000000,17533.691827,17070.295461,-20537.229840,-21337.511699,-17771.961423,-24167.778989,-4145.086306,-25194.305205,20755.651087,26047.046607,-22743.503480,-15584.463249,-254.496962,17628.060893,-23188.750230,-14683.017395,0.007625,-0.007625,1.005625,192.000000,0.000000,0.000000,0.000000,0.000000,0.000000,0.000000,0.000000,0.000000,0.000000,1771494518.168909,0.000000
48.000000,17493.682205,17033.280973,-20575.808951,-21372.246310,-17809.020616,-24201.686585,-4183.955989,-25231.274990,20706.879581,25992.754220,-22795.314824,-15634.374694,-308.051742,17578.216502,-23242.237954,-14726.782111,0.006812,-0.007812,1.006813,192.000000,0.000000,24.000000,127.500000,96.000000,15.500000,64.000000,0.000000,0.000000,0.000000,1771494518.168925,0.000000
50.000000,17545.560604,17084.265302,-20520.041349,-21317.015149,-17754.415304,-24142.342704,-4126.444951,-25179.508350,20735.400407,26019.933941,-22765.899928,-15604.244543,-275.507602,17613.308741,-23211.079623,-14698.082471,0.006812,-0.007812,1.006813,192.000000,0.000000,0.000000,0.000000,0.000000,0.000000,0.000000,0.000000,0.000000,0.000000,1771494518.168943,0.000000
52.000000,17485.322652,17023.379150,-20579.675803,-21373.140380,-17818.654218,-24194.489323,-4188.292228,-25238.159327,20729.968933,26018.928113,-22769.207986,-15607.709063,-279.285047,17615.432157,-23213.225390,-14692.226314,0.006812,-0.007812,1.006813,192.000000,0.000000,0.000000,0.000000,0.000000,0.000000,0.000000,0.000000,0.000000,0.000000,1771494518.168959,0.000000
54.000000,17515.385749,17053.486950,-20547.154015,-21340.573888,-17786.132429,-24157.340724,-4154.474038,-25209.526743,20688.081764,25978.471455,-22813.486792,-15651.965517,-323.809722,17572.583863,-23254.844338,-14725.105730,0.006812,-0.007812,1.006813,192.000000,0.000000,0.000000,0.000000,0.000000,0.000000,0.000000,0.000000,0.000000,0.000000,1771494518.168974,0.000000
56.000000,17519.811394,17055.766828,-20546.416407,-21338.785748,-17783.249054,-24150.545794,-4154.719908,-25208.990301,20743.335276,26036.049549,-22756.959231,-15596.376729,-263.661178,17631.458358,-23196.461582,-14668.265244,0.006812,-0.007812,1.006813,192.000000,0.000000,0.000000,0.000000,0.000000,0.000000,0.000000,0.000000,0.000000,0.000000,1771494518.168990,0.000000
58.000000,17487.021385,17026.955429,-20582.536826,-21371.463999,-17817.402520,-24189.951919,-4191.846155,-25241.400330,20697.201275,25985.355793,-22807.809449,-15646.981078,-316.813626,17576.808343,-23249.859899,-14712.208773,0.005406,-0.007906,1.004406,192.000000,0.000000,16.000000,127.500000,96.000000,15.500000,40.000000,0.000000,0.000000,0.000000,1771494518.648278,0.000000
60.000000,17542.699581,17085.695813,-20523.260000,-21314.981140,-17758.885653,-24136.285381,-4129.082457,-25184.582196,20727.174965,26023.666683,-22774.818274,-15611.151232,-282.168422,17616.326227,-23214.499440,-14685.140811,0.005406,-0.007906,1.004406,192.000000,0.000000,0.000000,0.000000,0.000000,0.000000,0.000000,0.000000,0.000000,0.000000,1771494518.648347,0.000000
62.000000,17492.497562,17033.303324,-20576.792428,-21366.993650,-17817.536630,-24193.438791,-4183.352492,-25232.727853,20724.895087,26023.733738,-22771.957251,-15606.211496,-279.150937,17617.801442,-23212.040748,-14685.766659,0.005406,-0.007906,1.004406,192.000000,0.000000,0.000000,0.000000,0.000000,0.000000,0.000000,0.000000,0.000000,0.000000,1771494518.648385,0.000000
64.000000,17533.848290,17070.720145,-20539.241497,-21334.002475,-17780.388031,-24157.586593,-4145.756858,-25195.355737,20694.004976,25986.719249,-22805.194295,-15641.817825,-313.594975,17584.072660,-23249.904603,-14723.854032,0.005406,-0.007906,1.004406,192.000000,0.000000,0.000000,0.000000,0.000000,0.000000,0.000000,0.000000,0.000000,0.000000,1771494518.648421,0.000000
66.000000,17537.759845,17075.279900,-20539.822643,-21336.930554,-17782.690261,-24160.849948,-4144.683974,-25192.494713,20756.455750,26046.510166,-22741.916507,-15579.523513,-256.195695,17647.015172,-23188.459657,-14672.534427,0.005406,-0.007906,1.004406,192.000000,0.000000,0.000000,0.000000,0.000000,0.000000,0.000000,0.000000,0.000000,0.000000,1771494518.648459,0.000000
68.000000,17501.840592,17038.667743,-20575.339565,-21370.793446,-17816.396691,-24196.031594,-4182.145498,-25225.329426,20710.165287,25994.385897,-22792.543208,-15631.714837,-319.808760,17596.366119,-23248.027056,-14723.652866,0.007703,-0.006953,1.002203,192.000000,0.000000,40.000000,127.500000,104.000000,15.500000,32.000000,0.000000,0.000000,0.000000,1771494518.648497,0.000000
70.000000,17562.056191,17099.933875,-20514.162840,-21312.857725,-17755.108208,-24136.911230,-4118.912413,-25166.454931,20743.715256,26028.829936,-22757.205100,-15596.980226,-283.375416,17629.424349,-23213.962998,-14694.148564,0.007703,-0.006953,1.002203,192.000000,0.000000,0.000000,0.000000,0.000000,0.000000,0.000000,0.000000,0.000000,0.000000,1771494518.648534,0.000000
72.000000,17507.383824,17045.954412,-20567.807027,-21364.222034,-17812.485136,-24188.096725,-4174.121222,-25220.568504,20748.699695,26033.479098,-22755.416960,-15595.639121,-278.256867,17628.440872,-23213.203038,-14692.271017,0.007703,-0.006953,1.002203,192.000000,0.000000,0.000000,0.000000,0.000000,0.000000,0.000000,0.000000,0.000000,0.000000,1771494518.648571,0.000000
74.000000,17526.852194,17063.969918,-20540.448492,-21337.489347,-17788.993453,-24164.269765,-4147.612053,-25201.524818,20704.756165,25986.607490,-22800.209856,-15640.096741,-321.731010,17581.926892,-23251.335114,-14725.284544,0.007703,-0.006953,1.002203,192.000000,0.000000,0.000000,0.000000,0.000000,0.000000,0.000000,0.000000,0.000000,0.000000,1771494518.648609,0.000000
76.000000,17513.172926,17051.810569,-20546.617573,-21342.809062,-17800.459898,-24167.622527,-4150.428373,-25210.867847,20746.710389,26033.836726,-22752.645344,-15593.292188,-272.735986,17630.005494,-23195.209884,-14670.500418,0.007703,-0.006953,1.002203,192.000000,0.000000,0.000000,0.000000,0.000000,0.000000,0.000000,0.000000,0.000000,0.000000,1771494518.648647,0.000000
78.000000,17474.929091,17009.431661,-20583.520303,-21379.667089,-17837.519090,-24204.212332,-4190.594457,-25245.200127,20685.399554,25970.402476,-22811.989225,-15653.507787,-339.321833,17568.560549,-23254.129082,-14719.361331,0.007703,-0.006953,1.002203,192.000000,0.000000,0.000000,0.000000,0.000000,0.000000,0.000000,0.000000,0.000000,0.000000,1771494518.648684,0.000000
80.000000,17537.335162,17069.848427,-20523.572925,-21324.659446,-17774.643633,-24149.025875,-4130.267099,-25187.689088,20715.730872,26005.204142,-22778.081629,-15621.991828,-301.614440,17600.322378,-23221.651998,-14696.540200,0.008000,-0.004000,1.006000,192.000000,0.000000,32.000000,127.500000,112.000000,15.500000,56.000000,0.000000,0.000000,0.000000,1771494518.648723,0.000000
82.000000,17490.418850,17024.340275,-20576.255986,-21377.543673,-17824.488023,-24204.346443,-4186.101757,-25235.946505,20727.130261,26011.864962,-22771.979603,-15617.454424,-289.656256,17607.720805,-23216.198172,-14697.724843,0.008000,-0.004000,1.006000,192.000000,0.000000,0.000000,0.000000,0.000000,0.000000,0.000000,0.000000,0.000000,0.000000,1771494518.648777,0.000000
84.000000,17526.047531,17064.126380,-20544.516509,-21347.078246,-17788.747583,-24172.338745,-4153.825838,-25201.904798,20698.274159,25974.984583,-22804.188467,-15652.345497,-325.731972,17571.332165,-23254.397303,-14740.327268,0.008000,-0.004000,1.006000,192.000000,0.000000,0.000000,0.000000,0.000000,0.000000,0.000000,0.000000,0.000000,0.000000,1771494518.648816,0.000000
86.000000,17530.830804,17069.401392,-20540.515547,-21344.530147,-17786.579464,-24168.427189,-4149.064916,-25197.076821,20751.225442,26034.373168,-22745.626896,-15591.571104,-263.549419,17635.369913,-23197.981500,-14691.734575,0.008000,-0.004000,1.006000,192.000000,0.000000,0.000000,0.000000,0.000000,0.000000,0.000000,0.000000,0.000000,0.000000,1771494518.648853,0.000000
88.000000,17491.536437,17031.649295,-20580.078135,-21379.980013,-17826.723197,-24207.319225,-4188.985132,-25232.638446,20703.571523,25986.473380,-22794.577216,-15640.409665,-309.973992,17580.094049,-23255.716056,-14739.880233,0.008000,-0.004000,1.006000,192.000000,0.000000,0.000000,0.000000,0.000000,0.000000,0.000000,0.000000,0.000000,0.000000,1771494518.648865,0.000000
90.000000,17551.081485,17088.713299,-20519.348445,-21319.697359,-17765.680583,-24151.551622,-4123.427465,-25174.836835,20729.320732,26024.985436,-22762.502463,-15606.613828,-284.604762,17611.431195,-23223.797765,-14712.342884,0.002000,0.000000,1.014000,192.000000,0.000000,8.000000,0.000000,0.000000,15.500000,88.000000,0.000000,0.000000,0.000000,1771494518.648876,0.000000
92.000000,17497.102022,17035.940830,-20573.618480,-21371.866330,-17819.950619,-24203.966463,-4179.150364,-25227.631656,20727.309075,26022.526744,-22761.988373,-15606.122089,-286.616419,17612.191154,-23220.377948,-14707.201982,0.002000,0.000000,1.014000,192.000000,0.000000,0.000000,0.000000,0.000000,0.000000,0.000000,0.000000,0.000000,0.000000,1771494518.648887,0.000000
94.000000,17523.097101,17066.070982,-20544.650620,-21345.647734,-17788.725232,-24174.350402,-4151.121277,-25201.949501,20686.070107,25985.355793,-22801.685071,-15645.662325,-327.967146,17573.544988,-23258.711190,-14743.970602,0.002000,0.000000,1.014000,192.000000,0.000000,0.000000,0.000000,0.000000,0.000000,0.000000,0.000000,0.000000,0.000000,1771494518.648898,0.000000
96.000000,17525.846365,17066.987403,-20542.840128,-21344.351333,-17783.539627,-24166.236718,-4149.288434,-25202.620054,20740.250735,26046.018427,-22749.359637,-15591.951083,-269.338521,17632.620648,-23199.412012,-14694.036805,0.002000,0.000000,1.014000,192.000000,0.000000,0.000000,0.000000,0.000000,0.000000,0.000000,0.000000,0.000000,0.000000,1771494518.648908,0.000000
98.000000,17474.213836,17017.277124,-20588.840018,-21386.976109,-17826.320866,-24200.948978,-4197.143519,-25248.552888,20687.455915,25990.049659,-22807.362414,-15648.880976,-324.949661,17581.613968,-23250.195175,-14736.974506,0.002000,0.000000,1.014000,192.000000,0.000000,0.000000,0.000000,0.000000,0.000000,0.000000,0.000000,0.000000,0.000000,1771494518.648920,0.000000
100.000000,17523.410025,17063.567586,-20530.077282,-21335.455338,-17773.928377,-24149.428207,-4138.783114,-25199.870789,20708.153630,26014.636578,-22783.490751,-15625.277534,-304.453111,17605.776203,-23217.382815,-14708.811308,0.002000,0.000000,1.014000,192.000000,0.000000,0.000000,0.000000,0.000000,15.500000,56.000000,0.000000,0.000000,0.000000,1771494518.648931,0.000000
102.000000,17462.993260,17004.201353,-20588.638853,-21388.004290,-17840.648334,-24203.564132,-4196.048283,-25256.219537,20701.761031,26005.964101,-22789.168094,-15632.385389,-306.241251,17601.752889,-23219.461527,-14706.330264,0.002000,0.000000,1.014000,192.000000,0.000000,0.000000,0.000000,0.000000,0.000000,0.000000,0.000000,0.000000,0.000000,1771494518.648942,0.000000
104.000000,17497.370243,17040.522938,-20555.535919,-21350.296897,-17803.455031,-24175.043306,-4161.380727,-25222.893086,20667.205234,25966.289755,-22826.786080,-15670.808038,-350.520057,17560.513921,-23260.611088,-14738.203852,0.002000,0.000000,1.014000,192.000000,0.000000,0.000000,0.000000,0.000000,0.000000,0.000000,0.000000,0.000000,0.000000,1771494518.648952,0.000000
106.000000,17516.324522,17057.353801,-20553.211338,-21339.612763,-17798.112964,-24170.975288,-4152.909416,-25206.688071,20731.421796,26033.367340,-22760.848434,-15604.177487,-283.554230,17628.820852,-23207.279826,-14688.359462,0.002000,0.000000,1.014000,192.000000,0.000000,0.000000,0.000000,0.000000,0.000000,0.000000,0.000000,0.000000,0.000000,1771494518.648963,0.000000
108.000000,17497.258484,17036.141996,-20582.626233,-21368.647679,-17824.398616,-24197.327995,-4185.542963,-25227.631656,20697.782421,25996.688127,-22799.539304,-15639.873223,-325.977841,17587.827753,-23259.091170,-14736.102788,0.002000,0.000000,1.014000,192.000000,0.000000,0.000000,0.000000,0.000000,0.000000,0.000000,0.000000,0.000000,0.000000,1771494518.648973,0.000000
110.000000,17559.977479,17101.051462,-20521.024826,-21312.388338,-17754.862339,-24137.693541,-4122.913375,-25168.198367,20735.109834,26042.039817,-22760.826082,-15600.176525,-280.983780,17626.920954,-23225.094166,-14712.052311,-0.002000,-0.008000,1.000000,192.000000,127.500000,120.000000,127.500000,96.000000,15.500000,32.000000,0.000000,0.000000,0.000000,1771494518.648984,0.000000
112.000000,17507.786156,17048.010772,-20574.199626,-21369.452342,-17814.474441,-24194.332861,-4179.686806,-25218.579199,20736.272125,26043.850308,-22756.512196,-15596.868467,-280.961428,17632.575945,-23220.288541,-14710.845317,-0.002000,-0.008000,1.000000,192.000000,0.000000,0.000000,0.000000,0.000000,0.000000,0.000000,0.000000,0.000000,0.000000,1771494518.648995,0.000000
114.000000,17532.909516,17075.078735,-20543.175404,-21346.050065,-17782.086764,-24168.807169,-4152.216512,-25194.595777,20697.648310,26002.052546,-22796.231246,-15639.515595,-319.831111,17585.704337,-23261.996897,-14754.431218,-0.002000,-0.008000,1.000000,192.000000,0.000000,0.000000,0.000000,0.000000,0.000000,0.000000,0.000000,0.000000,0.000000,1771494518.649008,0.000000
116.000000,17533.334200,17074.341127,-20538.302724,-21344.954830,-17778.443429,-24164.403875,-4149.646062,-25197.903836,20751.694828,26053.975648,-22740.307181,-15586.229037,-256.441564,17644.154149,-23196.059250,-14702.463413,-0.002000,-0.008000,1.000000,192.000000,0.000000,0.000000,0.000000,0.000000,0.000000,0.000000,0.000000,0.000000,0.000000,1771494518.649018,0.000000
118.000000,17489.345966,17024.496737,-20578.669975,-21383.243368,-17818.698921,-24200.010204,-4193.410777,-25239.880412,20694.899046,25992.910682,-22801.662719,-15646.355229,-316.210129,17581.010471,-23247.334152,-14750.989050,-0.002000,-0.008000,1.000000,192.000000,0.000000,0.000000,0.000000,0.000000,0.000000,0.000000,0.000000,0.000000,0.000000,1771494518.649029,0.000000
120.000000,17543.817168,17083.259473,-20525.741044,-21324.525335,-17761.724324,-24143.437939,-4134.268061,-25186.325632,20721.095290,26024.091366,-22770.660850,-15615.822746,-286.303495,17615.163936,-23213.426556,-14717.752006,-0.002000,-0.008000,1.000000,192.000000,0.000000,0.000000,127.500000,88.000000,15.500000,24.000000,0.000000,0.000000,0.000000,1771494518.649040,0.000000
122.000000,17492.385804,17032.364551,-20580.927501,-21372.626289,-17817.894258,-24191.941225,-4186.034702,-25236.482946,20720.067110,26025.991264,-22773.767742,-15614.459290,-288.136338,17619.097843,-23214.588847,-14709.213639,-0.002000,-0.008000,1.000000,192.000000,0.000000,0.000000,0.000000,0.000000,0.000000,0.000000,0.000000,0.000000,0.000000,1771494518.649050,0.000000
124.000000,17517.240944,17051.609403,-20551.579660,-21347.167653,-17790.468668,-24166.639050,-4156.463344,-25211.404289,20681.443296,25980.103133,-22813.240923,-15656.949956,-330.381135,17574.126133,-23254.620821,-14744.037657,-0.002000,-0.008000,1.000000,192.000000,0.000000,0.000000,0.000000,0.000000,0.000000,0.000000,0.000000,0.000000,0.000000,1771494518.649062,0.000000
126.000000,17516.302170,17051.989383,-20551.333791,-21348.978144,-17793.664967,-24169.723591,-4153.177637,-25212.544228,20730.192450,26034.373168,-22759.529681,-15603.417528,-273.965332,17629.983143,-23199.255550,-14697.076642,-0.002000,-0.008000,1.000000,192.000000,0.000000,0.000000,0.000000,0.000000,0.000000,0.000000,0.000000,0.000000,0.000000,1771494518.649073,0.000000
128.000000,17478.237150,17010.884525,-20590.672861,-21389.144229,-17829.494814,-24209.129716,-4196.227097,-25251.771540,20682.516179,25978.627918,-22814.626731,-15659.319241,-326.737800,17571.801552,-23253.212661,-14747.077495,-0.002000,-0.008000,1.000000,192.000000,0.000000,0.000000,0.000000,0.000000,0.000000,0.000000,0.000000,0.000000,0.000000,1771494518.649084,0.000000
130.000000,17542.543118,17076.621005,-20528.043273,-21327.229896,-17766.038211,-24147.997695,-4131.518797,-25190.125428,20711.282874,26008.936883,-22784.787152,-15629.434959,-292.204355,17602.781070,-23224.311855,-14726.178613,0.002000,-0.010000,0.996000,192.000000,0.000000,8.000000,127.500000,88.000000,15.500000,16.000000,0.000000,0.000000,0.000000,1771494518.649094,0.000000
132.000000,17501.728833,17032.766883,-20571.450361,-21368.513568,-17813.647427,-24194.198751,-4177.876315,-25228.726891,20727.398482,26024.024311,-22769.453856,-15614.012255,-280.246172,17615.499212,-23217.740442,-14716.500308,0.002000,-0.010000,0.996000,192.000000,0.000000,0.000000,0.000000,0.000000,0.000000,0.000000,0.000000,0.000000,0.000000,1771494518.649105,0.000000
134.000000,17530.428473,17064.416953,-20540.292029,-21340.462129,-17789.820467,-24170.841178,-4147.030908,-25198.484981,20692.842685,25991.837799,-22802.243865,-15645.327049,-317.394771,17576.875398,-23259.225280,-14756.644041,0.002000,-0.010000,0.996000,192.000000,0.000000,0.000000,0.000000,0.000000,0.000000,0.000000,0.000000,0.000000,0.000000,1771494518.649117,0.000000
136.000000,17535.971705,17073.134133,-20534.592335,-21331.253210,-17779.762182,-24164.627393,-4135.452704,-25191.086553,20746.531576,26050.354666,-22742.050617,-15584.016214,-259.973140,17639.952021,-23200.015509,-14707.269038,0.002000,-0.010000,0.996000,192.000000,0.000000,0.000000,0.000000,0.000000,0.000000,0.000000,0.000000,0.000000,0.000000,1771494518.649128,0.000000
138.000000,17491.469382,17028.922382,-20580.659280,-21371.106371,-17822.722235,-24209.934379,-4181.094966,-25233.286647,20692.105078,25995.436429,-22798.198199,-15635.201709,-320.971050,17586.888979,-23250.485748,-14752.620727,0.002000,-0.010000,0.996000,192.000000,0.000000,0.000000,0.000000,0.000000,0.000000,0.000000,0.000000,0.000000,0.000000,1771494518.649140,0.000000
140.000000,17543.504243,17079.258511,-20525.718692,-21318.020978,-17764.808865,-24154.479701,-4124.030962,-25183.688126,20712.199296,26015.776517,-22775.779399,-15611.553563,-293.567812,17615.968599,-23218.053367,-14730.716018,-0.004000,-0.012000,1.002000,192.000000,127.500000,112.000000,127.500000,80.000000,15.500000,40.000000,0.000000,0.000000,0.000000,1771494518.649151,0.000000
142.000000,17491.491734,17023.446205,-20577.507684,-21370.011135,-17816.419043,-24199.496114,-4179.038606,-25236.192374,20713.629808,26018.928113,-22774.974737,-15611.642970,-290.237402,17617.577924,-23211.705471,-14721.663561,-0.004000,-0.012000,1.002000,192.000000,0.000000,0.000000,0.000000,0.000000,0.000000,0.000000,0.000000,0.000000,0.000000,1771494518.649162,0.000000
144.000000,17519.342008,17053.129322,-20545.187061,-21346.117121,-17785.685394,-24165.566166,-4154.071707,-25213.483001,20681.085668,25978.650269,-22814.492621,-15654.603023,-323.854425,17576.942453,-23245.367199,-14750.609070,-0.004000,-0.012000,1.002000,192.000000,0.000000,0.000000,0.000000,0.000000,0.000000,0.000000,0.000000,0.000000,0.000000,1771494518.649172,0.000000
146.000000,17524.617019,17059.633679,-20542.884832,-21343.211394,-17783.159647,-24164.672096,-4150.115448,-25210.309054,20738.596706,26036.608343,-22759.797902,-15600.422394,-261.247189,17638.543861,-23187.543236,-14698.395395,-0.004000,-0.012000,1.002000,192.000000,0.000000,0.000000,0.000000,0.000000,0.000000,0.000000,0.000000,0.000000,0.000000,1771494518.649184,0.000000
148.000000,17489.033042,17020.406368,-20583.028565,-21381.052897,-17823.661008,-24204.413498,-4193.522536,-25245.758920,20691.300415,25984.126447,-22809.888161,-15651.540834,-319.674649,17586.419593,-23245.255440,-14744.529396,-0.004000,-0.012000,1.002000,192.000000,0.000000,0.000000,0.000000,0.000000,0.000000,0.000000,0.000000,0.000000,0.000000,1771494518.649195,0.000000
150.000000,17556.535310,17087.439249,-20517.403843,-21318.132736,-17754.907042,-24138.095872,-4126.176730,-25181.542359,20725.163308,26014.904799,-22774.237129,-15619.197860,-283.442471,17618.516698,-23216.846373,-14719.562497,-0.003000,-0.009000,1.003000,192.000000,127.500000,120.000000,127.500000,104.000000,15.500000,48.000000,0.000000,0.000000,0.000000,1771494518.649206,0.000000
152.000000,17503.427566,17033.929173,-20575.116047,-21375.956699,-17811.367549,-24191.896521,-4183.710120,-25233.353702,20733.791081,26025.276008,-22766.279908,-15612.224115,-277.094576,17625.736311,-23211.727823,-14711.493517,-0.003000,-0.009000,1.003000,192.000000,0.000000,0.000000,0.000000,0.000000,0.000000,0.000000,0.000000,0.000000,0.000000,1771494518.649218,0.000000
154.000000,17534.787063,17067.836770,-20542.661314,-21347.078246,-17780.186865,-24162.973364,-4150.383669,-25202.552998,20696.240150,25985.266386,-22805.171943,-15649.752694,-314.958431,17586.084317,-23255.112559,-14753.470093,-0.003000,-0.009000,1.003000,192.000000,0.000000,0.000000,0.000000,0.000000,0.000000,0.000000,0.000000,0.000000,0.000000,1771494518.649229,0.000000
156.000000,17540.419703,17074.788162,-20533.877079,-21341.557365,-17775.157723,-24161.900480,-4141.487675,-25196.987414,20751.761884,26044.722026,-22746.610373,-15592.129897,-250.719518,17643.215375,-23193.354689,-14705.033863,-0.003000,-0.009000,1.003000,192.000000,0.000000,0.000000,0.000000,0.000000,0.000000,0.000000,0.000000,0.000000,0.000000,1771494518.649240,0.000000
158.000000,17506.534458,17037.460749,-20569.438704,-21377.118990,-17813.133337,-24196.746850,-4182.391367,-25231.587914,20706.343139,26000.040889,-22793.616091,-15640.744941,-298.641658,17593.438040,-23242.863803,-14752.263099,-0.003000,-0.009000,1.003000,192.000000,0.000000,0.000000,0.000000,0.000000,0.000000,0.000000,0.000000,0.000000,0.000000,1771494518.649251,0.000000
160.000000,17566.817113,17098.749232,-20507.077337,-21319.943228,-17747.978002,-24139.124052,-4119.761779,-25173.093399,20739.647238,26031.601552,-22758.970888,-15609.474851,-261.448355,17625.132814,-23208.889152,-14728.436140,0.000500,-0.008500,1.003500,192.000000,0.000000,16.000000,127.500000,96.000000,15.500000,48.000000,0.000000,0.000000,0.000000,1771494518.649261,0.000000
162.000000,17513.284685,17041.260545,-20563.202567,-21371.463999,-17801.264560,-24194.757544,-4175.149402,-25223.317769,20744.430512,26035.021369,-22754.433483,-15605.607999,-265.628131,17628.217355,-23203.703547,-14725.217488,0.000500,-0.008500,1.003500,192.000000,0.000000,0.000000,0.000000,0.000000,0.000000,0.000000,0.000000,0.000000,0.000000,1771494518.649272,0.000000
164.000000,17536.597554,17066.942700,-20537.855689,-21340.260963,-17779.985700,-24163.576861,-4148.439067,-25199.222588,20702.900970,25993.827104,-22797.326481,-15644.678848,-308.789350,17585.413764,-23243.444949,-14759.035678,0.000500,-0.008500,1.003500,192.000000,0.000000,0.000000,0.000000,0.000000,0.000000,0.000000,0.000000,0.000000,0.000000,1771494518.649283,0.000000
166.000000,17540.754979,17072.865912,-20536.425178,-21331.074396,-17774.420115,-24157.676000,-4141.577082,-25192.941748,20753.550023,26050.108796,-22745.068102,-15586.877237,-251.971215,17642.366009,-23188.884340,-14705.503250,0.000500,-0.008500,1.003500,192.000000,0.000000,0.000000,0.000000,0.000000,0.000000,0.000000,0.000000,0.000000,0.000000,1771494518.649293,0.000000
168.000000,17500.767708,17033.392731,-20580.055783,-21367.664202,-17812.820412,-24193.572902,-4185.900591,-25232.392577,20703.191543,26001.024366,-22796.298301,-15632.430092,-306.665934,17597.260189,-23238.773434,-14747.949213,0.000500,-0.008500,1.003500,192.000000,0.000000,0.000000,0.000000,0.000000,0.000000,0.000000,0.000000,0.000000,0.000000,1771494518.649304,0.000000
170.000000,17552.936679,17082.767735,-20522.187116,-21313.349463,-17754.057676,-24133.178488,-4125.327364,-25183.263443,20727.890221,26030.886296,-22773.633632,-15609.050168,-279.352102,17623.925820,-23211.079623,-14722.021189,0.001250,-0.008250,1.004750,192.000000,0.000000,8.000000,127.500000,96.000000,15.500000,56.000000,0.000000,0.000000,0.000000,1771494518.649315,0.000000
172.000000,17509.596647,17031.761054,-20575.160751,-21369.161769,-17811.836936,-24189.706050,-4180.625579,-25233.912496,20730.863003,26028.494659,-22771.644327,-15612.335874,-279.463861,17620.975390,-23209.380890,-14714.913334,0.001250,-0.008250,1.004750,192.000000,0.000000,0.000000,0.000000,0.000000,0.000000,0.000000,0.000000,0.000000,0.000000,1771494518.649325,0.000000
174.000000,17536.128168,17060.460694,-20544.047122,-21340.260963,-17773.950729,-24158.391256,-4151.143628,-25205.123449,20698.542380,25987.814485,-22807.764746,-15650.199729,-315.740742,17578.149447,-23247.468263,-14750.519663,0.001250,-0.008250,1.004750,192.000000,0.000000,0.000000,0.000000,0.000000,0.000000,0.000000,0.000000,0.000000,0.000000,1771494518.649336,0.000000
176.000000,17538.564508,17067.188569,-20539.286201,-21333.443681,-17771.581444,-24151.819843,-4143.700498,-25199.446106,20747.939735,26050.935811,-22750.991315,-15589.671205,-252.865285,17645.249384,-23188.951396,-14696.115517,0.001250,-0.008250,1.004750,192.000000,0.000000,0.000000,0.000000,0.000000,0.000000,0.000000,0.000000,0.000000,0.000000,1771494518.649347,0.000000
178.000000,17493.391632,17015.779557,-20583.743821,-21383.332775,-17820.643523,-24200.032556,-4193.634295,-25245.334237,20696.038985,26001.158476,-22801.841533,-15642.868357,-306.844748,17594.086241,-23242.819100,-14743.031829,0.001250,-0.008250,1.004750,192.000000,0.000000,0.000000,0.000000,0.000000,0.000000,0.000000,0.000000,0.000000,0.000000,1771494519.129189,0.000000
180.000000,17553.897804,17080.174933,-20517.426195,-21324.704149,-17756.873996,-24141.269820,-4125.550881,-25182.369373,20719.865944,26022.817316,-22775.824103,-15621.947124,-280.290875,17613.219334,-23217.449870,-14729.084340,0.004625,-0.007125,1.009375,192.000000,0.000000,32.000000,127.500000,104.000000,15.500000,88.000000,0.000000,0.000000,0.000000,1771494519.129262,0.000000
182.000000,17514.849307,17036.879603,-20566.510626,-21375.040278,-17804.572619,-24193.796419,-4176.848135,-25224.815336,20735.847442,26036.653046,-22761.407228,-15607.485546,-270.277294,17627.256230,-23206.028128,-14724.904564,0.004625,-0.007125,1.009375,192.000000,0.000000,0.000000,0.000000,0.000000,0.000000,0.000000,0.000000,0.000000,0.000000,1771494519.129303,0.000000
184.000000,17545.895880,17071.345993,-20533.988837,-21344.373684,-17773.727211,-24164.783855,-4145.823913,-25191.578292,20704.219723,26004.354775,-22793.616091,-15643.047171,-307.627059,17590.353500,-23245.523661,-14766.970547,0.004625,-0.007125,1.009375,192.000000,0.000000,0.000000,0.000000,0.000000,0.000000,0.000000,0.000000,0.000000,0.000000,1771494519.129345,0.000000
186.000000,17548.913365,17076.017508,-20529.607896,-21336.975257,-17767.044040,-24155.083198,-4137.687878,-25187.331460,20756.343991,26068.548986,-22733.132271,-15580.797563,-248.171419,17656.693477,-23183.452866,-14714.443948,0.004625,-0.007125,1.009375,192.000000,0.000000,0.000000,0.000000,0.000000,0.000000,0.000000,0.000000,0.000000,0.000000,1771494519.129382,0.000000
188.000000,17501.259446,17027.156595,-20576.859483,-21380.136476,-17817.469575,-24203.944111,-4185.207687,-25233.934848,20700.621092,26011.887313,-22790.844475,-15636.989848,-306.576527,17603.228104,-23237.544088,-14761.092038,0.004625,-0.007125,1.009375,192.000000,0.000000,0.000000,0.000000,0.000000,0.000000,0.000000,0.000000,0.000000,0.000000,1771494519.129424,0.000000
190.000000,17559.373982,17086.500476,-20515.638055,-21320.323207,-17758.528025,-24142.923849,-4120.655849,-25176.110885,20725.476232,26036.965971,-22766.369315,-15613.207592,-280.983780,17627.010361,-23213.471259,-14738.092093,0.004313,-0.009562,1.010687,192.000000,0.000000,16.000000,127.500000,80.000000,15.500000,80.000000,0.000000,0.000000,0.000000,1771494519.129457,0.000000
192.000000,17512.412967,17036.589031,-20567.002364,-21368.982955,-17809.668816,-24193.908178,-4173.808297,-25224.189487,20734.193413,26048.410064,-22758.926184,-15606.233848,-270.389053,17632.888869,-23207.749213,-14728.994933,0.004313,-0.009562,1.010687,192.000000,0.000000,0.000000,0.000000,0.000000,0.000000,0.000000,0.000000,0.000000,0.000000,1771494519.129468,0.000000
194.000000,17536.083464,17061.555929,-20541.364913,-21340.462129,-17783.785496,-24165.409704,-4147.857922,-25198.775554,20697.290682,26007.439316,-22798.622882,-15645.058828,-307.694114,17599.160087,-23249.010533,-14761.829646,0.004313,-0.009562,1.010687,192.000000,0.000000,0.000000,0.000000,0.000000,0.000000,0.000000,0.000000,0.000000,0.000000,1771494519.129479,0.000000
196.000000,17538.095121,17069.066116,-20537.810986,-21334.807138,-17775.738868,-24158.123035,-4141.152399,-25197.188580,20745.548099,26063.363381,-22744.576364,-15589.023005,-254.139334,17652.759570,-23193.712317,-14709.638323,0.004313,-0.009562,1.010687,192.000000,0.000000,0.000000,0.000000,0.000000,0.000000,0.000000,0.000000,0.000000,0.000000,1771494519.129491,0.000000
198.000000,17494.911551,17026.597801,-20578.871140,-21371.173426,-17815.837898,-24188.543759,-4184.201859,-25237.891106,20696.754241,26018.346968,-22798.198199,-15639.448540,-302.709675,17601.842296,-23242.215603,-14746.473997,0.004313,-0.009562,1.010687,192.000000,0.000000,0.000000,0.000000,0.000000,0.000000,0.000000,0.000000,0.000000,0.000000,1771494519.129502,0.000000
200.000000,17552.780217,17081.896017,-20520.734253,-21312.701263,-17759.824426,-24122.159078,-4121.773436,-25182.302318,20718.591895,26037.211840,-22772.337231,-15615.353360,-278.502736,17631.592468,-23216.354634,-14717.349674,0.005156,-0.012781,1.010344,192.000000,0.000000,24.000000,127.500000,64.000000,15.500000,72.000000,0.000000,0.000000,0.000000,1771494519.129512,0.000000
202.000000,17491.245865,17021.121624,-20581.419239,-21370.927557,-17820.487061,-24178.463123,-4179.485640,-25241.243868,20720.223572,26037.547116,-22772.113713,-15613.408758,-275.999341,17633.961753,-23212.353672,-14708.207811,0.005156,-0.012781,1.010344,192.000000,0.000000,0.000000,0.000000,0.000000,0.000000,0.000000,0.000000,0.000000,0.000000,1771494519.129524,0.000000
204.000000,17519.744339,17045.552080,-20552.004344,-21347.413522,-17790.647482,-24157.497186,-4151.367146,-25215.807583,20676.660022,25989.043831,-22819.342949,-15663.566072,-320.412257,17582.709203,-23258.130045,-14751.391381,0.005156,-0.012781,1.010344,192.000000,0.000000,0.000000,0.000000,0.000000,0.000000,0.000000,0.000000,0.000000,0.000000,1771494519.129535,0.000000
206.000000,17533.580069,17060.371287,-20537.878041,-21340.953868,-17778.398726,-24155.910213,-4140.683012,-25204.005862,20742.038875,26052.925116,-22755.059332,-15602.389348,-261.426003,17644.355314,-23191.275977,-14701.189363,0.005156,-0.012781,1.010344,192.000000,0.000000,0.000000,0.000000,0.000000,0.000000,0.000000,0.000000,0.000000,0.000000,1771494519.129545,0.000000
208.000000,17497.437298,17023.021522,-20571.718582,-21379.175351,-17807.925380,-24193.192922,-4181.966684,-25239.522784,20702.006901,26007.014633,-22799.941635,-15648.880976,-299.200451,17597.059023,-23234.660713,-14749.223262,0.005156,-0.012781,1.010344,192.000000,0.000000,0.000000,0.000000,0.000000,0.000000,0.000000,0.000000,0.000000,0.000000,1771494519.129556,0.000000
210.000000,17557.965822,17088.623892,-20508.910180,-21320.747891,-17744.558185,-24137.201802,-4117.347791,-25178.279004,20731.153575,26037.323599,-22767.732771,-15618.572011,-266.365739,17627.591506,-23200.708413,-14729.799596,0.007578,-0.012391,1.010172,192.000000,0.000000,40.000000,127.500000,80.000000,15.500000,72.000000,0.000000,0.000000,0.000000,1771494519.129584,0.000000
212.000000,17515.899839,17043.607479,-20556.988783,-21364.646717,-17794.380223,-24185.325108,-4164.375861,-25218.512144,20738.954334,26051.494605,-22754.835815,-15602.434051,-254.474611,17642.298954,-23190.985404,-14720.635381,0.007578,-0.012391,1.010172,192.000000,0.000000,0.000000,0.000000,0.000000,0.000000,0.000000,0.000000,0.000000,0.000000,1771494519.129595,0.000000
214.000000,17535.792891,17065.579243,-20537.609820,-21343.569022,-17780.231569,-24166.035553,-4142.046469,-25196.562731,20700.688148,26006.701709,-22794.666623,-15642.443674,-299.423969,17595.606160,-23239.175765,-14762.477846,0.007578,-0.012391,1.010172,192.000000,0.000000,0.000000,0.000000,0.000000,0.000000,0.000000,0.000000,0.000000,0.000000,1771494519.129606,0.000000
216.000000,17543.727761,17073.268243,-20528.445605,-21335.634152,-17777.303490,-24156.357247,-4131.965832,-25189.164303,20749.593764,26059.854157,-22739.927201,-15586.564313,-243.231683,17652.178425,-23186.246835,-14713.907506,0.007578,-0.012391,1.010172,192.000000,0.000000,0.000000,0.000000,0.000000,0.000000,0.000000,0.000000,0.000000,0.000000,1771494519.129617,0.000000
218.000000,17498.867810,17026.396635,-20569.639870,-21376.448438,-17814.854421,-24200.725460,-4178.256295,-25232.258467,20704.063261,26009.987415,-22788.542245,-15636.453406,-293.970143,17602.401090,-23238.125233,-14756.331117,0.007578,-0.012391,1.010172,192.000000,0.000000,0.000000,0.000000,0.000000,0.000000,0.000000,0.000000,0.000000,0.000000,1771494519.129628,0.000000
220.000000,17554.546005,17084.511171,-20510.139526,-21317.909219,-17750.727266,-24138.252334,-4115.112616,-25176.312050,20726.929096,26028.494659,-22767.352792,-15617.856755,-268.176230,17624.641076,-23211.549009,-14735.923974,0.007578,-0.012391,1.010172,192.000000,0.000000,0.000000,0.000000,0.000000,0.000000,0.000000,0.000000,0.000000,0.000000,1771494519.129638,0.000000
222.000000,17499.650121,17027.849499,-20565.728315,-21369.027659,-17805.332578,-24182.777009,-4170.857867,-25228.436318,20733.276991,26034.484927,-22761.518986,-15610.815955,-259.995492,17635.951058,-23203.032995,-14718.824890,0.006000,-0.016000,1.014000,192.000000,0.000000,24.000000,127.500000,64.000000,15.500000,88.000000,0.000000,0.000000,0.000000,1771494519.129649,0.000000
224.000000,17521.800699,17049.307173,-20540.135567,-21344.396036,-17776.767048,-24154.099721,-4146.203893,-25206.755126,20690.652214,25989.490865,-22806.289531,-15654.960651,-301.480329,17593.706261,-23241.589754,-14751.592547,0.006000,-0.016000,1.014000,192.000000,0.000000,0.000000,0.000000,0.000000,0.000000,0.000000,0.000000,0.000000,0.000000,1771494519.129660,0.000000
226.000000,17527.500394,17058.471389,-20531.664256,-21332.326094,-17767.446371,-24143.482643,-4134.469227,-25200.966025,20743.961125,26041.369264,-22750.343114,-15598.924827,-247.545570,17652.848977,-23178.155503,-14693.299197,0.006000,-0.016000,1.014000,192.000000,0.000000,0.000000,0.000000,0.000000,0.000000,0.000000,0.000000,0.000000,0.000000,1771494519.129671,0.000000
228.000000,17483.690975,17014.572563,-20579.474637,-21374.302670,-17812.261619,-24186.867379,-4181.519649,-25242.584973,20697.156572,25993.827104,-22803.540266,-15649.305659,-297.658181,17606.782032,-23230.883268,-14734.292297,0.006000,-0.016000,1.014000,192.000000,0.000000,0.000000,0.000000,0.000000,0.000000,0.000000,0.000000,0.000000,0.000000,1771494519.129691,0.000000
230.000000,17549.427456,17077.962110,-20516.420366,-21318.266847,-17747.575670,-24129.937485,-4116.610183,-25181.274138,20719.016578,26018.794002,-22778.081629,-15625.009313,-277.452204,17632.218317,-23206.788088,-14720.747140,0.006000,-0.016000,1.014000,192.000000,0.000000,0.000000,0.000000,0.000000,0.000000,0.000000,0.000000,0.000000,0.000000,1771494519.129702,0.000000
232.000000,17506.377996,17032.386903,-20562.777884,-21368.222996,-17797.017729,-24182.911120,-4166.275759,-25223.563638,20738.060264,26035.043721,-22762.524815,-15611.262990,-258.989663,17642.567175,-23194.159352,-14715.136852,0.006000,-0.014000,1.006000,192.000000,0.000000,24.000000,127.500000,72.000000,15.500000,56.000000,0.000000,0.000000,0.000000,1771494519.129713,0.000000
234.000000,17528.193298,17056.303269,-20537.766282,-21346.139472,-17772.810790,-24167.667230,-4142.538207,-25199.870789,20699.771726,25994.318842,-22801.416850,-15648.836273,-300.183928,17600.456488,-23235.487728,-14760.130913,0.006000,-0.014000,1.006000,192.000000,0.000000,0.000000,0.000000,0.000000,0.000000,0.000000,0.000000,0.000000,0.000000,1771494519.129724,0.000000
236.000000,17543.168967,17068.395563,-20527.126852,-21334.762434,-17764.406534,-24159.575899,-4129.864768,-25188.136123,20753.661782,26052.947468,-22742.967039,-15587.100755,-237.062602,17660.716791,-23177.239082,-14711.247648,0.006000,-0.014000,1.006000,192.000000,0.000000,0.000000,0.000000,0.000000,0.000000,0.000000,0.000000,0.000000,0.000000,1771494519.129735,0.000000
238.000000,17501.929999,17028.587106,-20567.762323,-21373.475656,-17810.071148,-24198.669100,-4176.758728,-25228.771595,20707.974816,26006.657005,-22791.291510,-15633.592383,-290.952658,17613.487555,-23230.212716,-14756.040544,0.006000,-0.014000,1.006000,192.000000,0.000000,0.000000,0.000000,0.000000,0.000000,0.000000,0.000000,0.000000,0.000000,1771494519.129746,0.000000
240.000000,17558.234043,17085.785220,-20511.167706,-21314.534106,-17755.108208,-24138.319390,-4114.330305,-25173.987469,20730.483023,26029.276971,-22766.168149,-15608.223153,-264.577599,17641.114311,-23207.436288,-14734.962849,0.006000,-0.014000,1.006000,192.000000,0.000000,0.000000,0.000000,0.000000,0.000000,0.000000,0.000000,0.000000,0.000000,1771494519.129757,0.000000
242.000000,17514.022292,17040.187662,-20559.179253,-21358.209414,-17804.952598,-24177.524349,-4159.994919,-25218.467440,20739.647238,26037.636523,-22758.300335,-15599.483621,-256.709785,17652.223128,-23201.311910,-14721.216526,0.008000,-0.010000,1.002000,192.000000,0.000000,32.000000,127.500000,88.000000,15.500000,40.000000,0.000000,0.000000,0.000000,1771494519.129768,0.000000
244.000000,17524.393502,17054.828054,-20540.068512,-21340.506833,-17782.042060,-24153.183300,-4141.465323,-25204.966987,20699.816430,25994.698822,-22801.662719,-15642.846005,-303.402579,17612.034692,-23241.343885,-14756.197006,0.008000,-0.010000,1.002000,192.000000,0.000000,0.000000,0.000000,0.000000,0.000000,0.000000,0.000000,0.000000,0.000000,1771494519.129779,0.000000
246.000000,17533.043627,17061.801799,-20533.362989,-21331.566135,-17781.304453,-24147.841233,-4132.323460,-25199.759030,20744.788139,26047.091311,-22750.633687,-15593.180429,-250.428945,17665.164788,-23186.313890,-14705.413843,0.008000,-0.010000,1.002000,192.000000,0.000000,0.000000,0.000000,0.000000,0.000000,0.000000,0.000000,0.000000,0.000000,1771494519.129789,0.000000
248.000000,17485.635577,17015.891315,-20580.726335,-21375.353202,-17832.557003,-24193.952882,-4182.659588,-25244.350761,20694.586121,25998.722136,-22805.417813,-15644.075351,-307.939983,17614.940419,-23239.689856,-14746.518701,0.008000,-0.010000,1.002000,192.000000,0.000000,0.000000,0.000000,0.000000,0.000000,0.000000,0.000000,0.000000,0.000000,1771494519.129800,0.000000
250.000000,17544.711238,17072.173008,-20522.142413,-21318.289199,-17768.787476,-24135.436015,-4122.667506,-25188.426696,20717.608418,26020.962122,-22780.741487,-15623.847023,-286.124681,17634.900526,-23217.606332,-14725.150433,0.008000,-0.010000,1.002000,192.000000,0.000000,0.000000,0.000000,0.000000,0.000000,0.000000,0.000000,0.000000,0.000000,1771494519.129811,0.000000
252.000000,17494.017481,17019.199374,-20572.947928,-21367.485388,-17820.017674,-24189.259015,-4174.791774,-25237.265258,20729.633657,26027.108851,-22771.510216,-15614.906325,-275.418195,17639.594393,-23205.558742,-14710.375930,0.004000,-0.010000,1.008000,192.000000,0.000000,16.000000,127.500000,88.000000,15.500000,64.000000,0.000000,0.000000,0.000000,1771494519.129822,0.000000
254.000000,17521.443072,17045.574432,-20542.169576,-21343.770187,-17785.841857,-24164.448579,-4147.165018,-25210.465516,20694.072031,25978.873787,-22812.212743,-15657.955785,-312.723257,17594.600331,-23245.054274,-14752.240747,0.004000,-0.010000,1.008000,192.000000,0.000000,0.000000,0.000000,0.000000,0.000000,0.000000,0.000000,0.000000,0.000000,1771494519.129833,0.000000
0.000000,17534.518842,17062.964089,-20529.987875,-21337.399940,-17774.710688,-24150.992829,-4135.631518,-25198.663795,20748.654991,26042.263334,-22752.488882,-15598.656607,-250.317186,17656.291146,-23182.938776,-14706.442023,0.004000,-0.010000,1.008000,192.000000,0.000000,0.000000,0.000000,0.000000,0.000000,0.000000,0.000000,0.000000,0.000000,1771494519.129844,0.000000
2.000000,17498.778403,17026.664856,-20569.595166,-21377.230749,-17815.882601,-24197.260940,-4178.770385,-25232.884316,20710.366453,26000.666738,-22793.638443,-15640.029686,-294.640695,17612.839355,-23230.436233,-14751.927823,0.004000,-0.010000,1.008000,192.000000,0.000000,0.000000,0.000000,0.000000,0.000000,0.000000,0.000000,0.000000,0.000000,1771494519.129856,0.000000
4.000000,17562.302060,17091.216694,-20512.508811,-21323.519507,-17765.255900,-24143.616753,-4117.481901,-25172.892233,20732.137052,26023.376110,-22767.688068,-15615.241601,-271.193715,17635.168747,-23213.538315,-14742.160111,0.004000,-0.010000,1.008000,192.000000,0.000000,0.000000,0.000000,0.000000,0.000000,0.000000,0.000000,0.000000,0.000000,1771494519.129867,0.000000
6.000000,17515.296342,17043.786293,-20561.973222,-21365.786656,-17815.502622,-24189.661347,-4165.202876,-25216.433432,20746.218651,26044.386750,-22753.494710,-15599.237752,-259.302587,17652.357239,-23207.525695,-14733.219413,0.004000,-0.014000,1.006000,192.000000,0.000000,16.000000,127.500000,72.000000,15.500000,56.000000,0.000000,0.000000,0.000000,1771494519.129878,0.000000
8.000000,17536.128168,17068.283804,-20536.380474,-21340.573888,-17788.658177,-24165.566166,-4140.012460,-25193.232321,20705.069090,26002.186656,-22796.141839,-15638.554470,-305.458940,17608.994855,-23247.132986,-14768.848094,0.004000,-0.014000,1.006000,192.000000,0.000000,0.000000,0.000000,0.000000,0.000000,0.000000,0.000000,0.000000,0.000000,1771494519.129889,0.000000
10.000000,17540.911441,17076.151618,-20528.132680,-21331.230859,-17783.316110,-24159.352381,-4130.356506,-25188.046716,20758.601518,26057.283706,-22738.988428,-15580.775211,-245.444506,17663.309594,-23188.102029,-14715.069796,0.004000,-0.014000,1.006000,192.000000,0.000000,0.000000,0.000000,0.000000,0.000000,0.000000,0.000000,0.000000,0.000000,1771494519.129901,0.000000
12.000000,17489.725946,17020.227554,-20574.110219,-21375.666127,-17829.517165,-24200.591350,-4181.229077,-25238.382845,20706.186677,26003.974796,-22793.481981,-15636.140482,-296.987629,17611.945285,-23235.286562,-14754.610032,0.004000,-0.014000,1.006000,192.000000,0.000000,0.000000,0.000000,0.000000,0.000000,0.000000,0.000000,0.000000,0.000000,1771494519.129912,0.000000
14.000000,17540.911441,17074.005851,-20515.213372,-21319.004454,-17770.575615,-24136.084215,-4119.672372,-25184.761010,20720.514145,26017.363491,-22779.199216,-15625.143424,-280.290875,17625.132814,-23215.505268,-14736.438064,0.004000,-0.014000,1.006000,192.000000,0.000000,0.000000,0.000000,0.000000,0.000000,0.000000,0.000000,0.000000,0.000000,1771494519.129923,0.000000
16.000000,17493.391632,17022.038045,-20563.314326,-21365.250214,-17816.106119,-24180.720649,-4169.628521,-25231.230287,20730.058340,26031.243924,-22767.241033,-15613.162889,-270.009073,17640.622573,-23198.450887,-14714.063968,0.004000,-0.006000,1.018000,192.000000,0.000000,16.000000,127.500000,104.000000,15.500000,104.000000,0.000000,0.000000,0.000000,1771494519.129934,0.000000
18.000000,17511.518897,17039.964144,-20541.163747,-21347.346466,-17793.754374,-24161.609907,-4147.656756,-25211.337234,20684.371374,25981.265423,-22813.553847,-15661.219139,-315.561928,17591.828715,-23242.461472,-14754.319460,0.004000,-0.006000,1.018000,192.000000,0.000000,0.000000,0.000000,0.000000,0.000000,0.000000,0.000000,0.000000,0.000000,1771494519.129944,0.000000
20.000000,17521.867755,17051.184720,-20527.149204,-21338.539879,-17781.192694,-24161.028762,-4132.882253,-25200.496638,20741.569488,26037.725930,-22752.935917,-15603.194011,-251.926512,17649.675029,-23179.027221,-14701.390529,0.004000,-0.006000,1.018000,192.000000,0.000000,0.000000,0.000000,0.000000,0.000000,0.000000,0.000000,0.000000,0.000000,1771494519.129955,0.000000
22.000000,17477.790115,17007.151783,-20570.288070,-21384.048031,-17822.699883,-24208.950902,-4178.390405,-25242.473214,20695.435488,25985.221682,-22802.333272,-15653.507787,-302.262640,17595.695567,-23225.049463,-14748.709172,0.004000,-0.006000,1.018000,192.000000,0.000000,0.000000,0.000000,0.000000,0.000000,0.000000,0.000000,0.000000,0.000000,1771494519.129966,0.000000
24.000000,17542.610174,17073.983499,-20509.156049,-21324.190059,-17765.278252,-24149.964648,-4113.771512,-25179.754219,20714.970912,26012.133183,-22776.047620,-15627.266839,-279.530916,17620.707169,-23204.016471,-14734.448759,0.004000,-0.006000,1.018000,192.000000,0.000000,0.000000,0.000000,0.000000,0.000000,0.000000,0.000000,0.000000,0.000000,1771494519.129977,0.000000
26.000000,17499.605417,17026.620153,-20558.642812,-21371.262833,-17819.861212,-24199.250245,-4164.040585,-25223.429528,20725.006846,26026.684168,-22762.837739,-15611.888839,-265.516372,17633.470015,-23199.188495,-14725.753930,0.004000,-0.010000,1.012000,192.000000,0.000000,16.000000,127.500000,88.000000,15.500000,80.000000,0.000000,0.000000,0.000000,1771494519.129987,0.000000
28.000000,17527.835670,17056.347973,-20531.306628,-21345.267754,-17795.430755,-24174.238643,-4138.045506,-25196.875655,20694.519066,25991.524874,-22799.226379,-15647.070485,-304.386056,17597.662520,-23243.735521,-14765.852960,0.004000,-0.010000,1.012000,192.000000,0.000000,0.000000,0.000000,0.000000,0.000000,0.000000,0.000000,0.000000,0.000000,1771494519.129998,0.000000
30.000000,17539.972668,17069.669613,-20521.538916,-21335.388283,-17789.574598,-24164.515634,-4123.539224,-25185.744487,20748.587936,26053.416855,-22741.022437,-15587.167810,-240.750640,17659.420390,-23188.012622,-14717.930820,0.004000,-0.010000,1.012000,192.000000,0.000000,0.000000,0.000000,0.000000,0.000000,0.000000,0.000000,0.000000,0.000000,1771494519.130009,0.000000
32.000000,17496.722042,17026.016656,-20570.064553,-21376.850769,-17838.949602,-24205.240513,-4170.567294,-25229.777423,20705.516124,26001.739621,-22789.771591,-15635.536985,-288.963352,17609.464241,-23245.076626,-14763.595434,0.004000,-0.010000,1.012000,192.000000,0.000000,0.000000,0.000000,0.000000,0.000000,0.000000,0.000000,0.000000,0.000000,1771494519.130020,0.000000
34.000000,17549.315697,17081.448982,-20512.084128,-21317.395129,-17776.632938,-24140.576916,-4111.134006,-25177.474341,20721.810546,26030.640427,-22771.353754,-15613.006426,-274.032387,17631.234840,-23221.607294,-14742.987125,0.004000,-0.010000,1.012000,192.000000,0.000000,0.000000,0.000000,0.000000,0.000000,0.000000,0.000000,0.000000,0.000000,1771494519.130030,0.000000
36.000000,17490.999996,17023.222688,-20564.208396,-21366.323098,-17822.185793,-24191.091858,-4165.113469,-25232.057301,20727.107910,26041.816299,-22766.011687,-15609.050168,-268.958541,17643.483596,-23209.135021,-14726.960925,0.004000,-0.010000,1.013000,192.000000,0.000000,16.000000,127.500000,88.000000,15.500000,88.000000,0.000000,0.000000,0.000000,1771494519.130041,0.000000
38.000000,17507.875563,17041.081731,-20541.543727,-21345.424216,-17798.761165,-24168.404838,-4146.047431,-25214.779403,20680.728040,25992.038964,-22816.884257,-15658.156950,-316.590108,17596.746099,-23250.083417,-14763.818951,0.004000,-0.010000,1.013000,192.000000,0.000000,0.000000,0.000000,0.000000,0.000000,0.000000,0.000000,0.000000,0.000000,1771494519.130052,0.000000
40.000000,17520.772519,17055.185682,-20531.038407,-21333.153109,-17783.852551,-24150.635201,-4134.536282,-25203.894103,20741.189509,26049.639410,-22756.847472,-15600.802374,-254.720480,17661.320288,-23185.129247,-14705.704416,0.004000,-0.010000,1.013000,192.000000,0.000000,0.000000,0.000000,0.000000,0.000000,0.000000,0.000000,0.000000,0.000000,1771494519.130064,0.000000
42.000000,17475.152609,17011.108042,-20575.473675,-21377.767191,-17820.017674,-24191.583597,-4180.916152,-25247.480005,20701.559866,26009.272159,-22804.702557,-15646.601098,-301.077998,17618.583753,-23231.285600,-14742.696553,0.004000,-0.010000,1.013000,192.000000,0.000000,0.000000,0.000000,0.000000,0.000000,0.000000,0.000000,0.000000,0.000000,1771494519.609240,0.000000
44.000000,17529.713217,17062.986441,-20516.487422,-21323.921838,-17755.108208,-24133.960799,-4119.761779,-25194.931054,20720.223572,26019.263389,-22786.754106,-15634.106473,-280.089710,17630.899564,-23206.989253,-14728.883175,0.004000,-0.010000,1.013000,192.000000,0.000000,0.000000,0.000000,0.000000,0.000000,0.000000,0.000000,0.000000,0.000000,1771494519.609311,0.000000
46.000000,17486.842571,17016.450109,-20565.191873,-21368.245348,-17805.779613,-24177.166721,-4170.030853,-25240.685074,20730.907706,26033.255581,-22775.332364,-15622.081235,-267.036291,17645.092922,-23193.622910,-14715.606238,0.006000,-0.011000,1.012500,192.000000,0.000000,32.000000,127.500000,80.000000,15.500000,80.000000,0.000000,0.000000,0.000000,1771494519.609363,0.000000
48.000000,17516.503336,17048.547214,-20541.029637,-21343.636077,-17786.110078,-24152.579803,-4147.276777,-25212.901856,20694.072031,25999.258578,-22815.341987,-15659.118075,-310.622193,17607.653750,-23239.041655,-14756.085248,0.006000,-0.011000,1.012500,192.000000,0.000000,0.000000,0.000000,0.000000,0.000000,0.000000,0.000000,0.000000,0.000000,1771494519.609414,0.000000
50.000000,17543.057208,17072.329470,-20521.471861,-21325.642923,-17769.994470,-24132.239715,-4125.394419,-25188.091420,20762.803645,26066.403218,-22742.765873,-15590.229999,-239.409535,17676.988861,-23181.217692,-14705.950285,0.006000,-0.011000,1.012500,192.000000,0.000000,0.000000,0.000000,0.000000,0.000000,0.000000,0.000000,0.000000,0.000000,1771494519.609467,0.000000
52.000000,17501.281798,17028.944734,-20564.543672,-21367.999478,-17812.909819,-24179.938338,-4170.813164,-25228.078691,20720.268276,26024.069014,-22784.608338,-15632.698313,-285.901163,17632.575945,-23230.413882,-14749.759704,0.006000,-0.011000,1.012500,192.000000,0.000000,0.000000,0.000000,0.000000,0.000000,0.000000,0.000000,0.000000,0.000000,1771494519.609501,0.000000
54.000000,17557.474084,17090.970825,-20505.825639,-21311.583675,-17758.460970,-24126.562372,-4110.038770,-25171.461722,20742.485910,26042.039817,-22763.240071,-15612.313522,-261.873038,17654.413599,-23212.107803,-14737.265079,0.006000,-0.011000,1.012500,192.000000,0.000000,0.000000,0.000000,0.000000,0.000000,0.000000,0.000000,0.000000,0.000000,1771494519.609525,0.000000
56.000000,17511.541249,17038.935964,-20552.518434,-21355.616612,-17804.371453,-24172.785780,-4158.452649,-25217.506315,20752.611250,26049.661761,-22752.578289,-15600.914133,-251.323015,17665.120085,-23199.747288,-14723.876384,0.008000,-0.012500,1.009250,192.000000,0.000000,40.000000,127.500000,72.000000,15.500000,56.000000,0.000000,0.000000,0.000000,1771494519.609549,0.000000
58.000000,17529.221479,17057.085580,-20532.401864,-21337.824623,-17785.081897,-24156.446654,-4139.587777,-25201.457763,20709.941770,26006.455839,-22797.572350,-15645.796436,-306.084789,17616.415634,-23243.154376,-14762.567253,0.008000,-0.012500,1.009250,192.000000,0.000000,0.000000,0.000000,0.000000,0.000000,0.000000,0.000000,0.000000,0.000000,1771494519.609573,0.000000
60.000000,17536.843423,17062.584110,-20523.483518,-21330.470899,-17772.989604,-24149.584669,-4130.356506,-25194.662833,20760.188491,26059.250660,-22743.972867,-15593.314540,-249.646634,17668.562254,-23181.374154,-14712.476994,0.008000,-0.012500,1.009250,192.000000,0.000000,0.000000,0.000000,0.000000,0.000000,0.000000,0.000000,0.000000,0.000000,1771494519.609597,0.000000
62.000000,17485.814391,17013.767900,-20572.344431,-21372.581586,-17820.844689,-24198.020899,-4179.999731,-25240.483909,20710.500563,26004.421831,-22796.566522,-15644.343572,-298.619306,17614.739253,-23230.056254,-14756.129951,0.008000,-0.012500,1.009250,192.000000,0.000000,0.000000,0.000000,0.000000,0.000000,0.000000,0.000000,0.000000,0.000000,1771494519.609621,0.000000
64.000000,17538.519804,17064.439304,-20514.475765,-21315.092899,-17759.019763,-24140.107529,-4118.152454,-25188.024364,20721.564677,26024.583104,-22779.109809,-15626.752749,-281.989608,17635.660486,-23208.017434,-14735.119311,0.008000,-0.012500,1.009250,192.000000,0.000000,0.000000,0.000000,0.000000,0.000000,0.000000,0.000000,0.000000,0.000000,1771494519.609644,0.000000
66.000000,17500.365377,17023.870888,-20556.765265,-21359.908147,-17799.275255,-24179.536006,-4162.632425,-25226.379958,20734.707503,26035.155479,-22766.793998,-15615.599229,-266.030463,17648.088056,-23191.767715,-14718.668427,0.009000,-0.008250,1.005625,192.000000,0.000000,40.000000,127.500000,112.000000,15.500000,40.000000,0.000000,0.000000,0.000000,1771494519.609668,0.000000
68.000000,17521.063092,17043.048685,-20538.459186,-21344.284277,-17780.499790,-24162.280460,-4144.303995,-25208.520914,20693.490886,25994.609415,-22807.071842,-15657.262880,-309.683419,17604.345692,-23233.900754,-14758.253367,0.009000,-0.008250,1.005625,192.000000,0.000000,0.000000,0.000000,0.000000,0.000000,0.000000,0.000000,0.000000,0.000000,1771494519.609692,0.000000
70.000000,17543.794816,17063.433476,-20520.175459,-21326.648751,-17761.299641,-24144.600230,-4123.740390,-25185.699783,20755.919308,26057.596631,-22743.391722,-15595.415604,-246.740907,17664.337774,-23176.479122,-14709.146584,0.009000,-0.008250,1.005625,192.000000,0.000000,0.000000,0.000000,0.000000,0.000000,0.000000,0.000000,0.000000,0.000000,1771494519.609716,0.000000
72.000000,17506.579161,17023.692074,-20563.560195,-21367.574795,-17810.115851,-24185.347460,-4167.952140,-25221.395519,20719.776537,26014.457764,-22781.501446,-15632.675962,-288.181041,17624.216393,-23226.927009,-14750.810236,0.009000,-0.008250,1.005625,192.000000,0.000000,0.000000,0.000000,0.000000,0.000000,0.000000,0.000000,0.000000,0.000000,1771494519.609739,0.000000
74.000000,17572.025069,17093.563627,-20498.986006,-21306.062794,-17743.932336,-24123.120203,-4099.198174,-25156.463701,20746.866852,26041.369264,-22755.796940,-15607.060862,-264.801117,17651.105541,-23208.978559,-14739.120273,0.009000,-0.008250,1.005625,192.000000,0.000000,0.000000,0.000000,0.000000,0.000000,0.000000,0.000000,0.000000,0.000000,1771494519.609763,0.000000
76.000000,17524.862888,17047.608441,-20548.942155,-21353.113217,-17796.168363,-24177.591405,-4148.774344,-25201.524818,20767.721029,26061.754055,-22736.440329,-15586.564313,-244.595140,17669.210454,-23194.762849,-14725.999799,0.008500,-0.008125,1.002813,192.000000,0.000000,32.000000,127.500000,96.000000,15.500000,32.000000,0.000000,0.000000,0.000000,1771494519.609786,0.000000
