Sample_index,EXG Channel 0,EXG Channel 1,EXG Channel 2,EXG Channel 3,EXG Channel 4,EXG Channel 5,EXG Channel 6,EXG Channel 7,EXG Channel 8,EXG Channel 9,EXG Channel 10,EXG Channel 11,EXG Channel 12,EXG Channel 13,EXG Channel 14,EXG Channel 15,Accel Channel 0,Accel Channel 1,Accel Channel 2,Not Used,Digital Channel 0 (D11),Digital Channel 1 (D12),Digital Channel 2 (D13),Digital Channel 3 (D17),Not Used,Digital Channel 4 (D18),Analog Channel 0,Analog Channel 1,Analog Channel 2,Timestamp,Marker Channel
46.000000,20166.950842,18441.574984,6065.078803,15128.510014,10525.525871,-18272.685203,627.547577,-20602.631045,21749.029666,25812.353291,-17130.935744,-11808.448947,1583.889316,-485.099910,7607.639743,4731.149045,0.003500,-0.003500,1.012750,192.000000,0.000000,0.000000,0.000000,0.000000,0.000000,0.000000,0.000000,0.000000,0.000000,1771493547.845359,101.000000
48.000000,20216.951694,18493.542790,6107.792986,15132.153348,10556.974775,-18224.025455,673.100433,-20549.858576,21791.006242,25862.108274,-17070.966014,-11751.027316,1636.192398,-434.003822,7595.435690,4736.289947,0.003500,-0.003500,1.012750,192.000000,0.000000,0.000000,0.000000,0.000000,0.000000,0.000000,0.000000,0.000000,0.000000,1771493547.845421,0.000000
50.000000,20143.079179,18415.177574,6039.150779,15127.303019,10501.922429,-18305.631674,602.938307,-20631.598906,21764.809998,25831.687550,-17106.773508,-11785.091375,1606.375171,-464.849229,7592.105280,4728.064505,0.003500,-0.003500,1.012750,192.000000,0.000000,0.000000,0.000000,0.000000,0.000000,0.000000,0.000000,0.000000,0.000000,1771493547.845467,0.000000
52.000000,20195.896351,18468.240615,6088.637541,15130.588726,10541.306203,-18240.789263,656.135458,-20570.645698,21749.454349,25812.241532,-17122.710302,-11800.447023,1593.567621,-477.701482,7594.698083,4726.633993,0.005750,-0.004750,1.012375,192.000000,0.000000,32.000000,127.500000,104.000000,15.500000,80.000000,0.000000,0.000000,0.000000,1771493547.845542,0.000000
54.000000,20165.654441,18435.271792,6063.760050,15131.415740,10525.503519,-18270.852360,630.006269,-20600.977016,21791.676794,25857.414407,-17067.725011,-11747.272223,1644.976633,-430.226377,7587.590228,4744.895368,0.005750,-0.004750,1.012375,192.000000,0.000000,0.000000,0.000000,0.000000,0.000000,0.000000,0.000000,0.000000,0.000000,1771493547.845584,0.000000
56.000000,20146.633106,18420.854917,6049.834913,15125.403121,10516.361656,-18282.475267,619.165673,-20617.137327,21731.707064,25779.607985,-17146.179634,-11824.564555,1564.890333,-504.702390,7592.731129,4732.825426,0.005750,-0.004750,1.012375,192.000000,0.000000,0.000000,0.000000,0.000000,0.000000,0.000000,0.000000,0.000000,0.000000,1771493547.845608,0.000000
58.000000,20196.946883,18471.571025,6097.980571,15133.337990,10560.483999,-18223.801938,668.227752,-20563.023754,21772.700163,25841.097634,-17085.427592,-11763.052554,1616.299345,-440.642290,7589.534830,4748.002261,0.005750,-0.004750,1.012375,192.000000,0.000000,0.000000,0.000000,0.000000,0.000000,0.000000,0.000000,0.000000,0.000000,1771493547.845619,0.000000
60.000000,20121.710911,18394.479858,6036.848549,15126.878336,10506.660999,-18302.323616,604.502929,-20639.623182,21753.879995,25816.287198,-17117.725863,-11795.999026,1598.552060,-471.510049,7590.183030,4743.084877,0.005750,-0.004750,1.012375,192.000000,0.000000,0.000000,0.000000,0.000000,0.000000,0.000000,0.000000,0.000000,0.000000,1771493547.845631,0.000000
62.000000,20190.040194,18460.059876,6090.962123,15128.442958,10553.733772,-18240.141063,656.649549,-20574.378440,21741.407721,25807.748831,-17128.700570,-11808.717168,1582.369397,-485.234020,7595.547449,4736.312298,0.004875,-0.005375,1.012188,192.000000,0.000000,16.000000,127.500000,104.000000,15.500000,80.000000,0.000000,0.000000,0.000000,1771493547.845644,0.000000
64.000000,20161.228795,18428.789786,6070.845553,15132.801549,10541.350906,-18265.286775,631.392077,-20603.726280,21795.521295,25870.557233,-17066.316851,-11747.495740,1643.814342,-425.554863,7591.658246,4750.080973,0.004875,-0.005375,1.012188,192.000000,0.000000,0.000000,0.000000,0.000000,0.000000,0.000000,0.000000,0.000000,0.000000,1771493547.845656,0.000000
66.000000,20144.576746,18414.395263,6054.975814,15122.810319,10529.750351,-18281.335328,620.842054,-20619.439557,21730.343608,25794.628357,-17146.581965,-11827.693799,1572.624036,-495.493471,7595.390987,4727.662173,0.004875,-0.005375,1.012188,192.000000,0.000000,0.000000,0.000000,0.000000,0.000000,0.000000,0.000000,0.000000,0.000000,1771493547.845668,0.000000
68.000000,20194.801115,18463.747914,6100.863946,15129.582897,10568.776497,-18227.266458,668.048938,-20565.080114,21780.478571,25847.981971,-17082.834790,-11766.204150,1632.884339,-443.436258,7590.674769,4738.860397,0.004875,-0.005375,1.012188,192.000000,0.000000,0.000000,0.000000,0.000000,0.000000,0.000000,0.000000,0.000000,0.000000,1771493547.845680,0.000000
70.000000,20124.169603,18391.194152,6041.587119,15126.051322,10517.345133,-18299.999034,605.531109,-20639.042036,21754.818768,25823.462108,-17116.585924,-11794.702625,1608.655048,-459.998901,7593.781661,4736.088781,0.004875,-0.005375,1.012188,192.000000,0.000000,0.000000,0.000000,0.000000,0.000000,0.000000,0.000000,0.000000,0.000000,1771493547.845691,0.000000
72.000000,20184.698127,18457.042391,6094.583105,15131.415740,10564.104982,-18234.955458,661.075194,-20574.736068,21748.247355,25818.567076,-17125.213698,-11800.648189,1597.255659,-475.108680,7602.185917,4736.736981,0.004438,-0.005687,1.011094,192.000000,0.000000,16.000000,127.500000,104.000000,15.500000,72.000000,0.000000,0.000000,0.000000,1771493547.845702,0.000000
74.000000,20156.825502,18424.453548,6068.722137,15130.991057,10540.412133,-18265.242072,633.359031,-20606.564952,21788.324033,25869.350239,-17072.664746,-11752.390772,1645.535427,-420.324554,7590.451251,4750.684470,0.004438,-0.005687,1.011094,192.000000,0.000000,0.000000,0.000000,0.000000,0.000000,0.000000,0.000000,0.000000,0.000000,1771493547.845714,0.000000
76.000000,20137.603001,18406.147469,6050.259596,15121.200993,10525.704685,-18278.787229,618.942156,-20625.608638,21730.678884,25796.997642,-17149.666506,-11827.425579,1579.508374,-492.118358,7594.809841,4734.725324,0.004438,-0.005687,1.011094,192.000000,0.000000,0.000000,0.000000,0.000000,0.000000,0.000000,0.000000,0.000000,0.000000,1771493547.845725,0.000000
78.000000,20189.012014,18464.083190,6098.941696,15124.330237,10560.305185,-18222.080853,667.937180,-20569.215187,21778.511617,25853.882832,-17091.931950,-11768.573435,1638.740496,-436.574273,7586.025606,4749.119848,0.004438,-0.005687,1.011094,192.000000,0.000000,0.000000,0.000000,0.000000,0.000000,0.000000,0.000000,0.000000,0.000000,1771493547.845737,0.000000
80.000000,20127.388254,18398.816097,6040.357773,15127.235964,10516.987505,-18294.835781,607.565118,-20640.137272,21756.897480,25826.770166,-17117.435291,-11794.657921,1606.196357,-459.015424,7592.507612,4743.666022,0.004438,-0.005687,1.011094,192.000000,0.000000,0.000000,0.000000,0.000000,0.000000,0.000000,0.000000,0.000000,0.000000,1771493547.845748,0.000000
82.000000,20181.747697,18451.476807,6087.564658,15130.186394,10556.795961,-18237.101226,658.437688,-20580.547521,21749.431997,25810.632206,-17131.114558,-11809.566535,1604.832900,-480.338988,7594.608676,4732.288984,0.004438,-0.005687,1.011094,192.000000,0.000000,0.000000,0.000000,0.000000,0.000000,0.000000,0.000000,0.000000,0.000000,1771493547.845760,0.000000
84.000000,20158.546586,18426.800481,6067.403384,15135.506110,10540.725057,-18266.225549,634.498970,-20605.447365,21796.325957,25866.198643,-17072.709450,-11752.904863,1664.310892,-423.722020,7589.735995,4742.861359,0.002000,-0.010000,1.012000,192.000000,0.000000,8.000000,127.500000,88.000000,15.500000,80.000000,0.000000,0.000000,0.000000,1771493547.845771,0.000000
86.000000,20149.583536,18419.580867,6058.797963,15133.874432,10534.064237,-18273.936900,626.765266,-20615.460946,21740.625410,25798.226988,-17145.196157,-11823.089340,1606.129301,-489.257334,7598.699045,4724.979964,0.002000,-0.010000,1.012000,192.000000,0.000000,0.000000,0.000000,0.000000,0.000000,0.000000,0.000000,0.000000,0.000000,1771493547.845783,0.000000
88.000000,20202.244246,18472.129818,6108.687056,15138.814168,10565.513142,-18217.878725,673.346302,-20560.922690,21794.850742,25855.983896,-17079.012642,-11761.934967,1662.679215,-432.416848,7599.526060,4742.459028,0.002000,-0.010000,1.012000,192.000000,0.000000,0.000000,0.000000,0.000000,0.000000,0.000000,0.000000,0.000000,0.000000,1771493547.845793,0.000000
90.000000,20137.357132,18405.655730,6044.179922,15136.690752,10516.920449,-18296.266293,610.582603,-20633.878783,21774.533006,25829.184154,-17108.293427,-11791.349863,1639.343994,-459.842439,7600.218964,4736.848740,0.002000,-0.010000,1.012000,192.000000,0.000000,0.000000,0.000000,0.000000,0.000000,0.000000,0.000000,0.000000,0.000000,1771493547.845805,0.000000
92.000000,20194.510543,18460.775132,6088.950466,15134.857909,10552.169150,-18235.000162,658.281226,-20576.703021,21768.162759,25820.936360,-17122.375026,-11802.615142,1632.705525,-470.951256,7602.945876,4734.300641,0.002000,-0.010000,1.012000,192.000000,0.000000,0.000000,0.000000,0.000000,0.000000,0.000000,0.000000,0.000000,0.000000,1771493547.845817,0.000000
94.000000,20162.413438,18428.767434,6066.777535,15136.891918,10533.170168,-18261.263461,633.895473,-20607.861353,21805.378414,25869.841977,-17071.703621,-11750.379115,1676.067910,-416.591813,7591.255914,4749.790400,0.002000,-0.008000,1.004000,192.000000,0.000000,8.000000,127.500000,96.000000,15.500000,48.000000,0.000000,0.000000,0.000000,1771493547.845829,0.000000
96.000000,20145.023780,18411.534239,6049.253768,15133.919136,10511.936010,-18274.138066,621.110275,-20625.094548,21740.021913,25794.673061,-17153.600413,-11831.046561,1609.236194,-499.449730,7593.200516,4732.713667,0.002000,-0.008000,1.004000,192.000000,0.000000,0.000000,0.000000,0.000000,0.000000,0.000000,0.000000,0.000000,0.000000,1771493547.845840,0.000000
98.000000,20198.645615,18469.604071,6098.785233,15135.863738,10555.365450,-18216.895249,672.742805,-20566.801198,21785.820637,25850.418311,-17088.758002,-11768.998119,1651.212770,-438.764744,7588.640760,4749.812752,0.002000,-0.008000,1.004000,192.000000,0.000000,0.000000,0.000000,0.000000,0.000000,0.000000,0.000000,0.000000,0.000000,1771493547.845852,0.000000
100.000000,20122.828498,18393.138754,6033.629898,15126.118377,10503.889382,-18293.785249,606.022847,-20646.127539,21763.938280,25821.025767,-17118.105843,-11796.222543,1633.621947,-461.451764,7589.043091,4747.510522,0.002000,-0.008000,1.004000,192.000000,0.000000,0.000000,0.000000,0.000000,0.000000,0.000000,0.000000,0.000000,0.000000,1771493547.845864,0.000000
102.000000,20178.082011,18450.694496,6080.702672,15122.787967,10538.333421,-18232.899098,655.375499,-20587.431858,21750.840157,25801.602102,-17138.356523,-11815.690913,1618.668630,-478.886125,7590.384196,4739.374487,0.002000,-0.008000,1.004000,192.000000,0.000000,0.000000,0.000000,0.000000,0.000000,0.000000,0.000000,0.000000,0.000000,1771493547.845875,0.000000
104.000000,20165.229757,18433.550708,6067.358681,15127.414778,10526.554051,-18253.038019,636.778848,-20607.503725,21801.355100,25858.308477,-17078.006813,-11756.928177,1663.081546,-423.945537,7582.896362,4752.003223,0.002000,-0.008000,0.996000,192.000000,0.000000,8.000000,127.500000,96.000000,15.500000,16.000000,0.000000,0.000000,0.000000,1771493547.845887,0.000000
106.000000,20153.182167,18423.157146,6053.612358,15121.223345,10515.534641,-18277.915511,624.395981,-20619.283094,21752.427131,25795.991814,-17144.994991,-11825.212756,1604.296458,-489.927887,7592.798184,4730.657307,0.002000,-0.008000,0.996000,192.000000,0.000000,0.000000,0.000000,0.000000,0.000000,0.000000,0.000000,0.000000,0.000000,1771493547.845899,0.000000
108.000000,20201.372528,18474.767324,6097.555887,15124.352589,10548.034078,-18224.941877,667.713662,-20564.878948,21796.527123,25849.121910,-17083.706508,-11765.287729,1659.460564,-441.089325,7582.494030,4737.184016,0.002000,-0.008000,0.996000,192.000000,0.000000,0.000000,0.000000,0.000000,0.000000,0.000000,0.000000,0.000000,0.000000,1771493547.845910,0.000000
110.000000,20131.545679,18405.588675,6035.596852,15115.300133,10499.642551,-18302.569485,603.094769,-20638.572650,21775.874111,25824.669102,-17112.584962,-11793.942665,1629.352764,-466.123279,7583.008120,4729.696182,0.002000,-0.008000,0.996000,192.000000,0.000000,0.000000,0.000000,0.000000,0.000000,0.000000,0.000000,0.000000,0.000000,1771493547.845922,0.000000
112.000000,20186.978005,18461.780961,6084.658931,15114.271952,10540.278022,-18238.978772,652.626235,-20578.960547,21763.312431,25810.006357,-17128.924087,-11810.929991,1608.900918,-470.727738,7587.880801,4725.851682,0.002000,-0.008000,0.996000,192.000000,0.000000,0.000000,0.000000,0.000000,0.000000,0.000000,0.000000,0.000000,0.000000,1771493547.845934,0.000000
114.000000,20170.191845,18439.317458,6067.157515,15121.402159,10517.211022,-18264.526816,630.073324,-20601.289940,21811.458088,25864.209338,-17070.429572,-11753.329546,1663.617988,-427.253595,7581.711719,4744.582444,0.002000,-0.008000,0.996000,192.000000,0.000000,0.000000,127.500000,88.000000,15.500000,24.000000,0.000000,0.000000,0.000000,1771493547.845946,0.000000
116.000000,20157.093722,18422.397187,6050.192541,15118.585839,10504.582286,-18279.726002,616.461112,-20616.153850,21758.752675,25799.948072,-17142.715113,-11823.715189,1602.933002,-496.208727,7585.176240,4726.991621,0.002000,-0.008000,0.996000,192.000000,0.000000,0.000000,0.000000,0.000000,0.000000,0.000000,0.000000,0.000000,0.000000,1771493547.845957,0.000000
118.000000,20209.396804,18476.913092,6102.786196,15128.197089,10548.995203,-18216.604676,667.043110,-20556.899376,21812.106289,25858.487291,-17078.431496,-11760.929139,1658.521790,-438.675337,7584.416280,4745.431810,0.002000,-0.008000,0.996000,192.000000,0.000000,0.000000,0.000000,0.000000,0.000000,0.000000,0.000000,0.000000,0.000000,1771493547.845968,0.000000
120.000000,20135.971324,18404.448736,6042.347079,15126.654819,10500.290751,-18293.360566,605.173481,-20632.291810,21791.408574,25832.022826,-17105.834735,-11787.661825,1632.817284,-458.546038,7584.662150,4744.582444,0.002000,-0.008000,0.996000,192.000000,0.000000,0.000000,0.000000,0.000000,0.000000,0.000000,0.000000,0.000000,0.000000,1771493547.845980,0.000000
122.000000,20193.124735,18459.501083,6091.811489,15130.611078,10539.607470,-18232.966153,656.470735,-20572.545597,21773.057791,25818.321206,-17125.057235,-11806.571401,1615.517034,-475.890991,7585.869144,4737.519293,0.002000,-0.008000,0.996000,192.000000,0.000000,0.000000,0.000000,0.000000,0.000000,0.000000,0.000000,0.000000,0.000000,1771493547.845992,0.000000
124.000000,20173.879883,18438.401036,6074.891219,15135.304944,10524.542394,-18262.202235,634.230749,-20596.573722,21825.517336,25869.082018,-17064.036973,-11749.350935,1675.710282,-422.872653,7577.978978,4750.684470,0.002000,-0.008000,0.996000,192.000000,0.000000,0.000000,127.500000,112.000000,15.500000,48.000000,0.000000,0.000000,0.000000,1771493547.846003,0.000000
126.000000,20158.948917,18425.839356,6059.356756,15128.711179,10509.253801,-18280.664775,620.171502,-20611.303522,21769.235643,25803.613759,-17137.864785,-11821.032980,1608.945621,-488.229154,7589.490126,4731.260804,0.002000,-0.008000,0.996000,192.000000,0.000000,0.000000,0.000000,0.000000,0.000000,0.000000,0.000000,0.000000,0.000000,1771493547.846014,0.000000
128.000000,20215.387072,18483.640967,6109.312905,15127.593592,10544.211929,-18218.236353,668.495973,-20551.825530,21817.202487,25867.696210,-17075.682232,-11756.816418,1662.254532,-428.639403,7581.175277,4744.224816,0.002000,-0.008000,0.996000,192.000000,0.000000,0.000000,0.000000,0.000000,0.000000,0.000000,0.000000,0.000000,0.000000,1771493547.846026,0.000000
130.000000,20143.168586,18413.814117,6047.398573,15123.883203,10500.335455,-18293.584084,605.709923,-20628.357903,21802.137411,25842.774015,-17098.235142,-11783.079718,1649.558741,-452.220494,7584.952722,4739.776819,0.002000,-0.008000,0.996000,192.000000,0.000000,0.000000,0.000000,0.000000,0.000000,0.000000,0.000000,0.000000,0.000000,1771493547.846038,0.000000
132.000000,20196.544551,18470.252272,6097.466480,15125.894860,10537.014668,-18231.267420,657.118935,-20568.678745,21784.323071,25822.456279,-17116.742386,-11801.497555,1627.430514,-467.039700,7593.312275,4735.082952,0.002000,-0.008000,0.996000,192.000000,0.000000,0.000000,0.000000,0.000000,0.000000,0.000000,0.000000,0.000000,0.000000,1771493547.846049,0.000000
134.000000,20174.550435,18446.827644,6076.053509,15126.408950,10522.195461,-18255.004973,633.135513,-20595.992577,21828.624228,25877.083943,-17059.745438,-11742.310136,1680.314741,-408.232261,7587.456118,4748.516351,0.002000,-0.008000,0.996000,192.000000,0.000000,0.000000,127.500000,88.000000,15.500000,64.000000,0.000000,0.000000,0.000000,1771493547.846060,0.000000
136.000000,20159.127731,18430.712036,6058.820314,15126.341894,10515.132310,-18270.114752,617.288127,-20615.930333,21773.437771,25806.318320,-17138.088302,-11819.043674,1612.477197,-484.988151,7592.507612,4730.657307,0.002000,-0.008000,0.996000,192.000000,0.000000,0.000000,0.000000,0.000000,0.000000,0.000000,0.000000,0.000000,0.000000,1771493547.846071,0.000000
138.000000,20217.756357,18489.117144,6109.335257,15135.684924,10554.113752,-18207.529868,668.853601,-20556.385285,21822.276333,25867.383285,-17075.190493,-11755.743534,1670.502325,-424.973717,7588.730167,4746.258825,0.002000,-0.008000,0.996000,192.000000,0.000000,0.000000,0.000000,0.000000,0.000000,0.000000,0.000000,0.000000,0.000000,1771493547.846082,0.000000
140.000000,20142.609792,18417.323341,6042.950576,15134.679095,10498.480260,-18291.997110,602.223051,-20633.521156,21797.197675,25841.298800,-17104.158354,-11781.202171,1636.259453,-444.397383,7585.913847,4741.363793,0.002000,-0.008000,0.996000,192.000000,0.000000,0.000000,0.000000,0.000000,0.000000,0.000000,0.000000,0.000000,0.000000,1771493547.846093,0.000000
142.000000,20200.724328,18470.721659,6091.275047,15137.383656,10538.244014,-18230.641571,652.335662,-20575.004289,21780.299757,25822.098651,-17123.202041,-11798.345959,1617.506339,-462.949331,7587.769042,4736.021726,0.002000,-0.008000,0.996000,192.000000,0.000000,0.000000,0.000000,0.000000,0.000000,0.000000,0.000000,0.000000,0.000000,1771493547.846105,0.000000
144.000000,20173.455199,18442.424350,6071.493753,15137.964802,10518.797996,-18261.621089,628.575758,-20604.352129,21820.935228,25869.707867,-17068.842598,-11745.126455,1666.456660,-411.607374,7574.872085,4747.935205,-0.002000,-0.006000,1.020000,192.000000,127.500000,120.000000,127.500000,104.000000,15.500000,112.000000,0.000000,0.000000,0.000000,1771493547.846117,0.000000
146.000000,20157.741923,18426.912239,6053.344137,15131.907479,10505.074025,-18281.290624,612.013115,-20623.865202,21757.657439,25795.567131,-17147.386628,-11824.095169,1600.809586,-486.239849,7582.069347,4729.718534,-0.002000,-0.006000,1.020000,192.000000,0.000000,0.000000,0.000000,0.000000,0.000000,0.000000,0.000000,0.000000,0.000000,1771493547.846128,0.000000
148.000000,20209.597970,18481.472848,6103.903783,15132.734493,10549.553996,-18219.420996,662.796278,-20564.946004,21805.937207,25858.196718,-17084.242950,-11762.873741,1655.101973,-429.064087,7582.449327,4746.549397,-0.002000,-0.006000,1.020000,192.000000,0.000000,0.000000,0.000000,0.000000,0.000000,0.000000,0.000000,0.000000,0.000000,1771493547.846140,0.000000
150.000000,20141.246336,18412.361254,6044.425791,15123.145595,10504.470528,-18292.958235,600.569022,-20637.030379,21788.055812,25837.409596,-17108.807517,-11787.572418,1635.946528,-451.281721,7582.516382,4738.391011,-0.002000,-0.006000,1.020000,192.000000,0.000000,0.000000,0.000000,0.000000,0.000000,0.000000,0.000000,0.000000,0.000000,1771493547.846152,0.000000
152.000000,20194.689357,18464.597281,6090.895068,15117.334141,10544.904833,-18233.346132,647.865313,-20581.329832,21780.210350,25815.907218,-17126.152471,-11807.219602,1622.826054,-470.437166,7585.667978,4731.640784,-0.002000,-0.006000,1.020000,192.000000,0.000000,0.000000,0.000000,0.000000,0.000000,0.000000,0.000000,0.000000,0.000000,1771493547.846164,0.000000
154.000000,20184.295795,18456.036562,6075.606474,15124.576107,10533.125464,-18251.227528,628.307537,-20600.284112,21826.500812,25879.788504,-17066.897996,-11746.713429,1677.006683,-408.880461,7577.643702,4746.281176,-0.002000,-0.003000,1.014000,192.000000,127.500000,120.000000,0.000000,0.000000,15.500000,64.000000,0.000000,0.000000,0.000000,1771493547.846175,0.000000
156.000000,20150.879938,18419.133832,6049.276119,15115.277781,10515.869917,-18281.044755,605.955792,-20630.995408,21767.291041,25812.330939,-17146.045523,-11824.363390,1602.553022,-476.472137,7582.046995,4725.359944,-0.002000,-0.003000,1.014000,192.000000,0.000000,0.000000,0.000000,0.000000,0.000000,0.000000,0.000000,0.000000,0.000000,1771493547.846187,0.000000
158.000000,20211.028482,18472.889778,6106.585992,15121.469214,10558.405287,-18217.834022,661.633988,-20567.605861,21804.350234,25842.774015,-17092.155468,-11778.117630,1652.844447,-442.184561,7580.214152,4741.989641,-0.002000,-0.003000,1.014000,192.000000,0.000000,0.000000,0.000000,0.000000,0.000000,0.000000,0.000000,0.000000,0.000000,1771493547.846198,0.000000
160.000000,20144.330876,18405.678082,6043.464666,15116.507127,10504.828156,-18294.589912,596.501004,-20641.947763,21789.665137,25819.148221,-17111.199154,-11796.244895,1637.377040,-457.830782,7585.466812,4736.871092,-0.002000,-0.003000,1.014000,192.000000,0.000000,0.000000,0.000000,0.000000,0.000000,0.000000,0.000000,0.000000,0.000000,1771493547.846210,0.000000
162.000000,20201.841915,18461.088057,6091.520916,15123.167947,10539.965098,-18239.358752,645.093697,-20585.889588,21775.672945,25798.919892,-17130.242840,-11813.567497,1617.975726,-477.969703,7588.707815,4729.472665,-0.002000,-0.003000,1.014000,192.000000,0.000000,0.000000,0.000000,0.000000,0.000000,0.000000,0.000000,0.000000,0.000000,1771493547.846222,0.000000
164.000000,20186.106287,18440.949135,6078.042814,15125.872508,10525.995258,-18261.665793,627.145246,-20606.386138,21826.500812,25850.641829,-17069.244929,-11757.799895,1667.820116,-425.152531,7585.399757,4743.755429,-0.002000,-0.003000,1.014000,192.000000,0.000000,0.000000,0.000000,0.000000,15.500000,48.000000,0.000000,0.000000,0.000000,1771493547.846234,0.000000
166.000000,20165.699144,18421.726635,6058.283872,15121.379807,10509.097339,-18283.302281,611.856653,-20627.486185,21768.632146,25780.591462,-17145.665544,-11834.108750,1599.110854,-495.091140,7587.992559,4722.074237,-0.002000,-0.003000,1.014000,192.000000,0.000000,0.000000,0.000000,0.000000,0.000000,0.000000,0.000000,0.000000,0.000000,1771493547.965950,0.000000
168.000000,20214.403595,18472.755667,6107.994152,15126.006618,10546.871787,-18223.868993,663.042148,-20570.511588,21815.771975,25831.352273,-17089.316796,-11775.658938,1649.916369,-443.682127,7583.902190,4737.251072,-0.002000,-0.003000,1.014000,192.000000,0.000000,0.000000,0.000000,0.000000,0.000000,0.000000,0.000000,0.000000,0.000000,1771493547.965991,0.000000
170.000000,20141.782778,18399.732518,6043.218797,15113.154365,10495.283961,-18301.764822,595.316362,-20647.513348,21795.811867,25808.240570,-17112.674369,-11797.295427,1630.470351,-458.724851,7582.114051,4734.233586,-0.002000,-0.003000,1.014000,192.000000,0.000000,0.000000,0.000000,0.000000,0.000000,0.000000,0.000000,0.000000,0.000000,1771493547.966017,0.000000
172.000000,20204.121793,18463.457342,6096.371245,15115.434243,10540.836816,-18236.654191,648.714679,-20582.626233,21780.120943,25785.151218,-17132.366256,-11818.976619,1607.872737,-479.377863,7586.159716,4728.489188,-0.002000,-0.003000,1.014000,192.000000,0.000000,0.000000,0.000000,0.000000,0.000000,0.000000,0.000000,0.000000,0.000000,1771493547.966041,0.000000
174.000000,20188.833200,18446.045333,6079.361567,15118.854060,10526.062313,-18256.793112,626.608804,-20602.362824,21841.722350,25856.207413,-17062.427647,-11750.446171,1675.397357,-411.182691,7582.583437,4746.124714,-0.002000,-0.003000,1.014000,192.000000,0.000000,0.000000,0.000000,0.000000,15.500000,32.000000,0.000000,0.000000,0.000000,1771493547.966079,0.000000
176.000000,20163.374563,18412.070681,6057.613320,15109.175755,10514.841737,-18271.232339,611.051990,-20623.775795,21775.918815,25771.539005,-17140.748160,-11832.231204,1614.041819,-485.010503,7588.394891,4723.392990,-0.002000,-0.003000,1.014000,192.000000,0.000000,0.000000,0.000000,0.000000,0.000000,0.000000,0.000000,0.000000,0.000000,1771493547.966103,0.000000
178.000000,20237.984686,18485.205589,6122.120455,15114.160194,10558.986432,-18211.039091,666.685482,-20555.893547,21827.618400,25827.574829,-17073.916444,-11768.595787,1663.685043,-430.896930,7592.149984,4740.939109,-0.002000,-0.003000,1.014000,192.000000,0.000000,0.000000,0.000000,0.000000,0.000000,0.000000,0.000000,0.000000,0.000000,1771493547.966127,0.000000
180.000000,20161.497016,18406.750966,6054.327614,15109.980417,10509.097339,-18292.690014,596.746873,-20636.158661,21810.921646,25806.810058,-17096.223485,-11790.388738,1645.088392,-440.374069,7593.647551,4739.262729,-0.002000,-0.003000,1.014000,192.000000,0.000000,0.000000,0.000000,0.000000,0.000000,0.000000,0.000000,0.000000,0.000000,1771493547.966151,0.000000
182.000000,20219.566848,18468.106504,6102.987361,15114.137842,10547.363525,-18234.329609,648.804086,-20574.244329,21791.542684,25774.869415,-17118.374064,-11814.707436,1622.356668,-482.015369,7598.699045,4729.495016,-0.002000,-0.003000,1.014000,192.000000,0.000000,0.000000,0.000000,0.000000,0.000000,0.000000,0.000000,0.000000,0.000000,1771493547.966175,0.000000
184.000000,20207.407499,18455.187196,6085.485945,15121.782139,10533.661906,-18252.054543,632.375554,-20591.991614,21841.342371,25837.521355,-17054.336316,-11747.473389,1682.616971,-419.810464,7589.624237,4748.561054,0.000000,-0.001500,1.007000,192.000000,0.000000,8.000000,0.000000,0.000000,15.500000,32.000000,0.000000,0.000000,0.000000,1771493547.966199,0.000000
186.000000,20193.236493,18443.206661,6064.676471,15118.116452,10516.093435,-18273.735735,613.555385,-20611.839963,21787.966405,25774.377677,-17125.906602,-11818.529584,1619.607403,-483.334122,7598.743749,4731.327859,0.000000,-0.001500,1.007000,192.000000,0.000000,0.000000,0.000000,0.000000,0.000000,0.000000,0.000000,0.000000,0.000000,1771493547.966223,0.000000
188.000000,20244.354933,18493.229865,6116.510167,15118.496432,10553.912586,-18217.319932,663.556238,-20555.714733,21832.871060,25831.821660,-17069.468447,-11765.287729,1674.235067,-432.215683,7593.848716,4740.760295,0.000000,-0.001500,1.007000,192.000000,0.000000,0.000000,0.000000,0.000000,0.000000,0.000000,0.000000,0.000000,0.000000,1771493547.966246,0.000000
190.000000,20168.336650,18417.032768,6051.935977,15117.311790,10496.826231,-18297.205066,598.356199,-20635.175185,21810.005225,25803.591407,-17093.943607,-11790.209924,1644.060212,-455.953235,7589.579533,4733.898310,0.000000,-0.001500,1.007000,192.000000,0.000000,0.000000,0.000000,0.000000,0.000000,0.000000,0.000000,0.000000,0.000000,1771493547.966270,0.000000
192.000000,20225.244191,18474.297938,6097.175908,15118.563487,10537.037019,-18239.314048,649.318176,-20577.172408,21786.558245,25773.461255,-17118.709340,-11815.556802,1620.680287,-481.255410,7591.032397,4726.254013,0.000000,-0.001500,1.007000,192.000000,0.000000,0.000000,0.000000,0.000000,0.000000,0.000000,0.000000,0.000000,0.000000,1771493547.966294,0.000000
194.000000,20211.631979,18463.300879,6090.000998,15122.676208,10529.862109,-18248.701781,633.291976,-20592.215132,21840.649467,25836.001436,-17051.497644,-11747.853368,1681.320570,-420.145741,7585.042129,4745.454162,0.001000,-0.001750,1.006500,192.000000,0.000000,8.000000,127.500000,120.000000,15.500000,56.000000,0.000000,0.000000,0.000000,1771493548.154770,0.000000
196.000000,20192.476534,18441.820853,6065.414079,15116.730644,10512.964191,-18274.741563,613.130702,-20614.745690,21780.813847,25767.515691,-17127.359465,-11819.088378,1623.496607,-484.965799,7598.430824,4733.361868,0.001000,-0.001750,1.006500,192.000000,0.000000,0.000000,0.000000,0.000000,0.000000,0.000000,0.000000,0.000000,0.000000,1771493548.154870,0.000000
198.000000,20251.507491,18500.136554,6119.907632,15111.925019,10554.873711,-18215.509440,664.226790,-20556.094713,21822.678664,25820.198753,-17070.809552,-11765.757116,1665.473183,-428.706459,7590.406548,4741.453200,0.001000,-0.001750,1.006500,192.000000,0.000000,0.000000,0.000000,0.000000,0.000000,0.000000,0.000000,0.000000,0.000000,1771493548.154950,0.000000
200.000000,20182.395897,18427.314571,6056.294567,15102.537287,10505.297542,-18293.941712,599.563193,-20632.761196,21811.659254,25799.366927,-17090.210866,-11788.578247,1657.471258,-452.958101,7590.875934,4736.625223,0.001000,-0.001750,1.006500,192.000000,0.000000,0.000000,0.000000,0.000000,0.000000,0.000000,0.000000,0.000000,0.000000,1771493548.154975,0.000000
202.000000,20238.878755,18488.334833,6107.748283,15102.179659,10547.855264,-18231.021551,650.055784,-20571.383306,21797.689414,25776.612851,-17111.489726,-11811.980523,1635.700659,-478.528497,7597.782624,4729.495016,0.001000,-0.001750,1.006500,192.000000,0.000000,0.000000,0.000000,0.000000,0.000000,0.000000,0.000000,0.000000,0.000000,1771493548.155000,0.000000
204.000000,20224.014845,18471.615728,6095.432472,15102.470231,10545.038944,-18248.947650,633.224920,-20588.460039,21852.607650,25838.594239,-17042.981630,-11744.254737,1700.185442,-416.144778,7596.843850,4752.964348,0.001500,-0.001875,1.009250,192.000000,0.000000,8.000000,127.500000,120.000000,15.500000,80.000000,0.000000,0.000000,0.000000,1771493548.155041,0.000000
206.000000,20194.555246,18444.145434,6066.889294,15098.089289,10521.234336,-18279.726002,608.883871,-20616.332664,21788.547550,25768.610927,-17126.286581,-11822.083512,1632.169084,-488.922058,7601.962400,4728.422133,0.001500,-0.001875,1.009250,192.000000,0.000000,0.000000,0.000000,0.000000,0.000000,0.000000,0.000000,0.000000,0.000000,1771493548.155073,0.000000
208.000000,20251.574546,18505.076290,6118.834748,15107.141746,10562.138028,-18217.722263,664.986749,-20552.406675,21832.111100,25824.870267,-17067.725011,-11763.074906,1682.281695,-435.680203,7595.703911,4743.576615,0.001500,-0.001875,1.009250,192.000000,0.000000,0.000000,0.000000,0.000000,0.000000,0.000000,0.000000,0.000000,0.000000,1771493548.155085,0.000000
210.000000,20176.226816,18428.968600,6052.897102,15103.498412,10504.984618,-18296.601569,596.657466,-20633.610563,21812.933303,25803.345538,-17091.507267,-11786.320720,1656.420726,-456.310863,7591.278266,4738.994508,0.001500,-0.001875,1.009250,192.000000,0.000000,0.000000,0.000000,0.000000,0.000000,0.000000,0.000000,0.000000,0.000000,1771493548.155097,0.000000
212.000000,20227.725235,18481.651662,6098.941696,15109.466327,10545.351868,-18235.246031,644.132572,-20578.848789,21794.694280,25780.926738,-17119.290485,-11812.651075,1636.997060,-473.856982,7596.910905,4736.669926,0.001500,-0.001875,1.009250,192.000000,0.000000,0.000000,0.000000,0.000000,0.000000,0.000000,0.000000,0.000000,0.000000,1771493548.155108,0.000000
214.000000,20213.978912,18463.144417,6087.497602,15116.194202,10533.728961,-18250.981659,631.548540,-20595.344376,21845.566850,25836.493175,-17055.476255,-11751.921386,1692.988180,-415.585985,7588.461946,4755.132467,0.001500,-0.001875,1.009250,192.000000,0.000000,0.000000,0.000000,0.000000,0.000000,0.000000,0.000000,0.000000,0.000000,1771493548.155119,0.000000
216.000000,20191.627168,18442.558461,6063.290663,15106.091214,10513.321819,-18286.766802,607.274545,-20620.803013,21785.686527,25764.520557,-17130.265192,-11829.057256,1619.003906,-487.335084,7594.116937,4735.284118,0.002000,0.002000,1.008000,192.000000,0.000000,8.000000,0.000000,8.000000,15.500000,64.000000,0.000000,0.000000,0.000000,1771493548.155130,0.000000
218.000000,20254.770846,18503.645778,6120.891109,15109.220458,10560.215778,-18221.477356,664.673825,-20553.166634,21830.345312,25821.405747,-17070.697793,-11769.020470,1678.548953,-435.322575,7589.624237,4744.113057,0.002000,0.002000,1.008000,192.000000,0.000000,0.000000,0.000000,0.000000,0.000000,0.000000,0.000000,0.000000,0.000000,1771493548.155140,0.000000
220.000000,20177.791438,18424.900582,6047.465628,15096.524667,10499.910772,-18304.737604,595.070493,-20634.728150,21818.700054,25800.976253,-17091.283749,-11788.153564,1659.460564,-455.908532,7588.305484,4738.793342,0.002000,0.002000,1.008000,192.000000,0.000000,0.000000,0.000000,0.000000,0.000000,0.000000,0.000000,0.000000,0.000000,1771493548.155151,0.000000
222.000000,20237.403540,18486.993729,6100.416911,15100.480926,10539.920394,-18241.303353,649.228769,-20571.360954,21800.662196,25776.635203,-17115.803613,-11809.611238,1637.198226,-474.326369,7590.764176,4734.010069,0.002000,0.002000,1.008000,192.000000,0.000000,0.000000,0.000000,0.000000,0.000000,0.000000,0.000000,0.000000,0.000000,1771493548.155161,0.000000
224.000000,20224.886563,18472.263929,6090.470384,15110.382749,10533.416037,-18255.608470,634.521322,-20586.426030,21852.048856,25842.259925,-17049.150711,-11741.147845,1694.038712,-418.357601,7586.919676,4753.590197,0.002000,0.002000,1.008000,192.000000,0.000000,0.000000,0.000000,0.000000,0.000000,0.000000,0.000000,0.000000,0.000000,1771493548.155172,0.000000
226.000000,20199.763203,18446.961754,6067.313977,15104.504240,10521.301391,-18278.496656,611.856653,-20610.118879,21794.448411,25773.662421,-17125.839546,-11816.763796,1623.407200,-483.602343,7594.653379,4736.826388,-0.002000,-0.004000,1.006000,192.000000,127.500000,120.000000,127.500000,112.000000,15.500000,56.000000,0.000000,0.000000,0.000000,1771493548.155183,0.000000
228.000000,20263.286860,18511.088909,6126.702562,15107.901705,10565.267273,-18212.581362,670.082947,-20543.130701,21842.459958,25831.262866,-17064.036973,-11756.570549,1680.493555,-428.192369,7597.872030,4750.796229,-0.002000,-0.004000,1.006000,192.000000,0.000000,0.000000,0.000000,0.000000,0.000000,0.000000,0.000000,0.000000,0.000000,1771493548.155194,0.000000
230.000000,20188.542627,18433.751873,6061.837800,15102.961970,10518.060388,-18295.126354,602.915955,-20624.088719,21828.043083,25811.235703,-17083.594749,-11777.581188,1667.440136,-439.681165,7598.073196,4745.007127,-0.002000,-0.004000,1.006000,192.000000,0.000000,0.000000,0.000000,0.000000,0.000000,0.000000,0.000000,0.000000,0.000000,1771493548.155205,0.000000
232.000000,20237.492947,18488.290130,6104.686094,15104.794813,10553.398496,-18235.626010,650.368708,-20569.796332,21805.959559,25786.268805,-17111.176802,-11803.464508,1645.200151,-471.510049,7606.946839,4740.514426,-0.002000,-0.004000,1.006000,192.000000,0.000000,0.000000,0.000000,0.000000,0.000000,0.000000,0.000000,0.000000,0.000000,1771493548.155216,0.000000
234.000000,20222.964313,18469.604071,6091.185640,15110.025121,10539.898043,-18257.150740,631.392077,-20587.633024,21853.009981,25845.970314,-17052.212900,-11744.210034,1696.564459,-417.016496,7593.804013,4753.701956,-0.002000,-0.004000,1.006000,192.000000,0.000000,0.000000,0.000000,0.000000,0.000000,0.000000,0.000000,0.000000,0.000000,1771493548.155227,0.000000
236.000000,20196.723365,18442.156129,6065.056451,15112.372054,10515.109958,-18281.067107,610.716714,-20613.248123,21790.335690,25775.629374,-17128.320590,-11818.708398,1628.168121,-484.205840,7600.911868,4736.625223,-0.002000,-0.004000,1.006000,192.000000,0.000000,0.000000,127.500000,104.000000,15.500000,48.000000,0.000000,0.000000,0.000000,1771493548.155238,0.000000
238.000000,20262.213977,18508.719624,6125.517920,15119.703426,10556.237168,-18216.649379,670.127651,-20544.650620,21836.134414,25827.999512,-17067.523845,-11759.185703,1673.609218,-429.242901,7593.289923,4748.493999,-0.002000,-0.004000,1.006000,192.000000,0.000000,0.000000,0.000000,0.000000,0.000000,0.000000,0.000000,0.000000,0.000000,1771493548.155251,0.000000
240.000000,20182.820580,18426.822832,6055.735774,15108.929885,10497.429728,-18301.474250,597.909164,-20629.274324,21825.494984,25809.760488,-17085.606406,-11778.408203,1663.014491,-446.341985,7594.385158,4744.582444,-0.002000,-0.004000,1.006000,192.000000,0.000000,0.000000,0.000000,0.000000,0.000000,0.000000,0.000000,0.000000,0.000000,1771493548.622420,0.000000
242.000000,20235.861270,18480.243502,6107.860042,15111.343874,10536.232357,-18243.694990,647.977072,-20571.360954,21802.584446,25780.546758,-17114.753081,-11808.158375,1643.322604,-473.678168,7600.241315,4733.831255,-0.002000,-0.004000,1.006000,192.000000,0.000000,0.000000,0.000000,0.000000,0.000000,0.000000,0.000000,0.000000,0.000000,1771493548.622483,0.000000
244.000000,20223.724273,18467.793580,6096.237134,15115.389540,10531.337325,-18258.156569,633.001403,-20587.789486,21850.573641,25839.689474,-17048.234290,-11744.277089,1695.804500,-412.121464,7595.256876,4748.918682,-0.002000,-0.004000,1.006000,192.000000,0.000000,0.000000,0.000000,0.000000,0.000000,0.000000,0.000000,0.000000,0.000000,1771493548.622526,0.000000
246.000000,20200.947845,18442.804330,6073.125431,15109.645141,10513.835909,-18282.922302,611.163749,-20615.572705,21789.553379,25768.879148,-17124.766663,-11821.032980,1630.805627,-477.880296,7604.175222,4731.953708,-0.002000,-0.004000,1.006000,192.000000,0.000000,0.000000,127.500000,112.000000,15.500000,48.000000,0.000000,0.000000,0.000000,1771493548.622571,0.000000
248.000000,20259.017677,18502.058804,6123.059228,15111.589743,10556.751258,-18215.911772,663.846810,-20555.893547,21831.753472,25822.478631,-17069.356688,-11766.092392,1682.684026,-434.517912,7600.643647,4748.851627,-0.002000,-0.004000,1.006000,192.000000,0.000000,0.000000,0.000000,0.000000,0.000000,0.000000,0.000000,0.000000,0.000000,1771493548.622616,0.000000
250.000000,20187.179171,18433.573059,6060.966082,15109.980417,10511.600734,-18295.014595,601.306629,-20630.123690,21816.934266,25808.732308,-17089.115630,-11782.610331,1667.708357,-444.889122,7600.218964,4750.192732,-0.002000,-0.004000,1.006000,192.000000,0.000000,0.000000,0.000000,0.000000,0.000000,0.000000,0.000000,0.000000,0.000000,1771493548.622660,0.000000
252.000000,20245.360761,18489.698290,6108.150614,15114.115490,10550.850397,-18234.821348,650.793392,-20572.366783,21798.382318,25789.643918,-17113.523735,-11807.934857,1638.964014,-467.419680,7608.824385,4744.783609,-0.002000,-0.004000,1.006000,192.000000,0.000000,0.000000,0.000000,0.000000,0.000000,0.000000,0.000000,0.000000,0.000000,1771493548.622676,0.000000
254.000000,20229.401616,18474.297938,6097.354722,15116.931810,10543.407267,-18248.701781,638.522284,-20586.806010,21856.563909,25856.229765,-17044.970935,-11739.784389,1701.906526,-401.012647,7605.516327,4763.827296,-0.002000,-0.004000,1.006000,192.000000,0.000000,0.000000,0.000000,0.000000,0.000000,0.000000,0.000000,0.000000,0.000000,1771493548.622693,0.000000
0.000000,20203.272427,18450.582737,6066.978701,15111.142708,10516.138138,-18281.089459,611.454321,-20616.153850,21795.118963,25787.922834,-17126.867727,-11818.239012,1630.470351,-472.806450,7605.829252,4741.587310,-0.002000,-0.006000,1.004000,192.000000,127.500000,120.000000,127.500000,104.000000,15.500000,48.000000,0.000000,0.000000,0.000000,1771493548.622708,0.000000
2.000000,20271.691116,18519.694331,6125.227347,15123.682037,10562.383898,-18216.895249,671.424052,-20546.148186,21838.950734,25843.601029,-17068.574377,-11757.576377,1681.857012,-418.379953,7596.933257,4752.941996,-0.002000,-0.006000,1.004000,192.000000,0.000000,0.000000,0.000000,0.000000,0.000000,0.000000,0.000000,0.000000,0.000000,1771493548.622724,0.000000
4.000000,20195.002281,18438.266926,6064.251788,15115.166022,10511.690141,-18297.249770,603.787673,-20626.212135,21833.519260,25829.944113,-17079.593787,-11769.534560,1672.916314,-430.181674,7595.838022,4751.600892,-0.002000,-0.006000,1.004000,192.000000,0.000000,0.000000,0.000000,0.000000,0.000000,0.000000,0.000000,0.000000,0.000000,1771493548.622738,0.000000
6.000000,20248.512357,18488.446592,6110.564603,15114.271952,10550.872749,-18243.896156,653.028566,-20570.377477,21808.351196,25797.958767,-17110.282732,-11802.011645,1642.182665,-462.904628,7603.594077,4740.536778,-0.002000,-0.006000,1.004000,192.000000,0.000000,0.000000,0.000000,0.000000,0.000000,0.000000,0.000000,0.000000,0.000000,1771493548.622754,0.000000
8.000000,20230.005113,18475.102600,6095.119547,15116.060092,10538.512235,-18258.514197,640.712755,-20586.090754,21861.324830,25854.620439,-17043.629830,-11738.085656,1707.852090,-401.817310,7592.395853,4758.932264,-0.002000,-0.006000,1.004000,192.000000,0.000000,0.000000,0.000000,0.000000,0.000000,0.000000,0.000000,0.000000,0.000000,1771493548.622770,0.000000
10.000000,20197.125697,18441.574984,6064.989396,15100.011539,10509.723188,-18285.649214,612.258984,-20620.892420,21790.894483,25778.669212,-17129.862860,-11820.138910,1633.107857,-478.796718,7594.094586,4733.495979,-0.002000,-0.006000,1.004000,192.000000,0.000000,0.000000,127.500000,112.000000,15.500000,40.000000,0.000000,0.000000,0.000000,1771493548.622784,0.000000
12.000000,20263.845654,18506.573857,6127.060190,15108.572258,10560.126371,-18218.236353,673.078081,-20551.534957,21832.580487,25827.664236,-17073.514113,-11766.897055,1674.480936,-427.790037,7593.267571,4749.522179,-0.002000,-0.006000,1.004000,192.000000,0.000000,0.000000,0.000000,0.000000,0.000000,0.000000,0.000000,0.000000,0.000000,1771493548.622799,0.000000
14.000000,20194.175267,18432.254306,6061.480172,15109.533383,10509.857298,-18295.573389,607.274545,-20628.693179,21830.613533,25819.885828,-17082.566569,-11779.279921,1662.634511,-437.222473,7596.463871,4750.706822,-0.002000,-0.006000,1.004000,192.000000,0.000000,0.000000,0.000000,0.000000,0.000000,0.000000,0.000000,0.000000,0.000000,1771493548.622824,0.000000
16.000000,20237.649409,18480.645833,6101.981533,15103.856040,10540.054505,-18245.840758,651.262778,-20578.468809,21799.857533,25787.095819,-17116.697683,-11810.728825,1631.722049,-465.072747,7598.967266,4739.352136,-0.002000,-0.006000,1.004000,192.000000,0.000000,0.000000,0.000000,0.000000,0.000000,0.000000,0.000000,0.000000,0.000000,1771493548.622839,0.000000
18.000000,20227.322904,18471.436914,6092.862021,15107.991112,10533.036057,-18257.106037,640.824514,-20590.404640,21848.249060,25844.405692,-17052.235252,-11747.205168,1687.601410,-406.287659,7590.898286,4756.518275,-0.002000,-0.006000,1.004000,192.000000,0.000000,0.000000,0.000000,0.000000,0.000000,0.000000,0.000000,0.000000,0.000000,1771493548.622863,0.000000
20.000000,20206.111098,18448.146397,6070.711442,15106.471194,10519.714417,-18284.129296,618.338659,-20617.763176,21786.737059,25776.009354,-17128.141776,-11821.055331,1622.870758,-472.426471,7602.208269,4738.882749,-0.002000,-0.006000,1.004000,192.000000,0.000000,0.000000,127.500000,96.000000,15.500000,64.000000,0.000000,0.000000,0.000000,1771493548.622879,0.000000
22.000000,20269.433590,18507.087947,6125.540271,15106.359435,10559.187598,-18219.711568,671.222886,-20553.770131,21835.441510,25822.500983,-17069.557854,-11768.372270,1673.497459,-429.466418,7598.229658,4749.008089,-0.002000,-0.006000,1.004000,192.000000,0.000000,0.000000,0.000000,0.000000,0.000000,0.000000,0.000000,0.000000,0.000000,1771493548.622894,0.000000
24.000000,20195.806944,18430.265001,6057.725079,15102.157307,10505.141080,-18298.568523,601.530147,-20633.342342,21826.299647,25810.051061,-17084.734688,-11783.347938,1665.227314,-439.502351,7591.881763,4743.755429,-0.002000,-0.006000,1.004000,192.000000,0.000000,0.000000,0.000000,0.000000,0.000000,0.000000,0.000000,0.000000,0.000000,1771493548.622910,0.000000
26.000000,20254.659087,18487.552522,6106.518937,15114.830746,10546.558863,-18244.097322,652.872104,-20573.506722,21804.841972,25784.547720,-17114.551915,-11812.092282,1641.176837,-465.497430,7599.973094,4733.652441,-0.002000,-0.006000,1.004000,192.000000,0.000000,0.000000,0.000000,0.000000,0.000000,0.000000,0.000000,0.000000,0.000000,1771493548.622925,0.000000
28.000000,20240.264564,18472.263929,6094.583105,15110.963894,10539.741580,-18257.486016,638.097601,-20590.382289,21856.698019,25849.859518,-17046.200281,-11743.628889,1698.509061,-404.208947,7594.563972,4751.377374,-0.002000,-0.006000,1.004000,192.000000,0.000000,0.000000,0.000000,0.000000,0.000000,0.000000,0.000000,0.000000,0.000000,1771493548.622941,0.000000
30.000000,20216.571714,18445.039504,6067.783364,15111.857964,10526.732865,-18279.994223,617.489292,-20616.489126,21799.365795,25777.171645,-17124.409035,-11820.720055,1638.338165,-474.304017,7601.783586,4734.457104,-0.002000,-0.006000,1.004000,192.000000,0.000000,0.000000,127.500000,104.000000,15.500000,72.000000,0.000000,0.000000,0.000000,1771493548.622956,0.000000
32.000000,20276.653204,18508.205534,6126.233176,15115.769519,10573.112735,-18217.990484,673.905095,-20551.736123,21846.125644,25825.071433,-17067.032107,-11765.757116,1685.612105,-422.202101,7600.151908,4753.053755,-0.002000,-0.006000,1.004000,192.000000,0.000000,0.000000,0.000000,0.000000,0.000000,0.000000,0.000000,0.000000,0.000000,1771493548.622971,0.000000
34.000000,20206.446374,18434.377722,6063.782402,15107.857002,10523.380104,-18296.445107,609.420313,-20629.095510,21832.580487,25814.029671,-17080.823133,-11779.168162,1670.099994,-431.723944,7598.810804,4751.355022,-0.002000,-0.006000,1.004000,192.000000,0.000000,0.000000,0.000000,0.000000,0.000000,0.000000,0.000000,0.000000,0.000000,1771493548.622987,0.000000
36.000000,20249.674648,18478.589473,6105.311943,15104.727758,10553.331441,-18250.266403,651.776868,-20581.240425,21807.278312,25776.188168,-17114.976599,-11814.327456,1646.898883,-468.269046,7602.074158,4740.559130,-0.002000,-0.006000,1.004000,192.000000,0.000000,0.000000,0.000000,0.000000,0.000000,0.000000,0.000000,0.000000,0.000000,1771493548.623003,0.000000
38.000000,20246.590107,18477.024850,6103.277934,15114.786043,10550.381011,-18253.596813,645.741897,-20586.157809,21856.675667,25844.718617,-17048.927194,-11746.646374,1701.191270,-401.973772,7592.731129,4760.608645,-0.002000,-0.006000,1.004000,192.000000,0.000000,0.000000,0.000000,0.000000,0.000000,0.000000,0.000000,0.000000,0.000000,1771493548.623021,0.000000
40.000000,20213.755395,18442.580812,6074.243018,15110.159231,10528.096322,-18284.173999,617.332830,-20621.451214,21807.345367,25780.904386,-17121.078625,-11816.205003,1640.528636,-459.842439,7606.700970,4748.695165,-0.002000,-0.006000,1.004000,192.000000,0.000000,0.000000,127.500000,96.000000,15.500000,72.000000,0.000000,0.000000,0.000000,1771493548.623036,0.000000
42.000000,20275.960299,18504.718662,6129.764751,15113.646104,10573.291549,-18219.018664,672.608694,-20558.151073,21846.036237,25822.880962,-17071.569511,-11770.965072,1682.035825,-424.012592,7604.018760,4756.317110,-0.002000,-0.006000,1.004000,192.000000,0.000000,0.000000,0.000000,0.000000,0.000000,0.000000,0.000000,0.000000,0.000000,1771493548.623052,0.000000
44.000000,20206.088746,18432.321362,6065.548189,15109.175755,10522.284868,-18297.406232,607.229842,-20632.671789,21833.765129,25814.074375,-17083.594749,-11781.738613,1675.240895,-433.065049,7599.459004,4753.366679,-0.002000,-0.006000,1.004000,192.000000,0.000000,0.000000,0.000000,0.000000,0.000000,0.000000,0.000000,0.000000,0.000000,1771493548.623067,0.000000
46.000000,20252.759189,18484.378574,6108.441187,15106.448842,10555.119581,-18242.420941,651.888627,-20581.441591,21809.044100,25782.446657,-17116.004779,-11812.248744,1637.645261,-465.542134,7605.583382,4742.459028,-0.002000,-0.006000,1.004000,192.000000,0.000000,0.000000,0.000000,0.000000,0.000000,0.000000,0.000000,0.000000,0.000000,1771493548.623085,0.000000
48.000000,20248.110026,18476.063725,6102.942658,15115.255429,10546.312993,-18242.979734,645.607787,-20587.185989,21866.085752,25851.044160,-17046.289688,-11741.483121,1702.062989,-393.860089,7599.034321,4762.329729,-0.002000,-0.006000,1.004000,192.000000,0.000000,0.000000,0.000000,0.000000,0.000000,0.000000,0.000000,0.000000,0.000000,1771493548.623101,0.000000
50.000000,20214.716520,18440.055065,6070.152649,15108.371092,10522.061351,-18280.351851,616.550519,-20622.904077,21803.254998,25780.300889,-17123.805538,-11819.535413,1631.297366,-461.071785,7605.046940,4745.409458,-0.002000,-0.007000,1.010000,192.000000,127.500000,120.000000,127.500000,96.000000,15.500000,96.000000,0.000000,0.000000,0.000000,1771493548.623116,0.000000
52.000000,20277.368459,18503.444612,6128.378943,15117.289438,10566.675433,-18211.821403,673.569819,-20555.290050,21841.476481,25826.792518,-17073.312947,-11769.489857,1676.894924,-418.424656,7600.934219,4753.344328,-0.002000,-0.007000,1.010000,192.000000,0.000000,0.000000,0.000000,0.000000,0.000000,0.000000,0.000000,0.000000,0.000000,1771493548.623131,0.000000
54.000000,20211.497868,18442.245536,6066.777535,15116.864755,10518.619182,-18284.553979,609.755589,-20628.067330,21840.850632,25824.199715,-17077.604482,-11771.859142,1672.603389,-420.279851,7601.448310,4755.758316,-0.002000,-0.007000,1.010000,192.000000,0.000000,0.000000,0.000000,0.000000,0.000000,0.000000,0.000000,0.000000,0.000000,1771493548.623147,0.000000
56.000000,20262.795122,18493.609845,6105.401350,15113.064958,10551.275081,-18231.647400,655.286092,-20574.981937,21817.023673,25794.784819,-17111.690892,-11803.486860,1641.534465,-449.918264,7603.549374,4744.090705,-0.002000,-0.007000,1.010000,192.000000,0.000000,0.000000,0.000000,0.000000,0.000000,0.000000,0.000000,0.000000,0.000000,1771493548.623163,0.000000
58.000000,20246.411293,18478.410659,6104.037893,15116.127147,10540.568595,-18243.158548,649.899322,-20583.565007,21866.018697,25861.124797,-17043.048685,-11734.934060,1699.201965,-387.087510,7596.463871,4763.246150,-0.002000,-0.007000,1.010000,192.000000,0.000000,0.000000,0.000000,0.000000,0.000000,0.000000,0.000000,0.000000,0.000000,1771493548.623178,0.000000
60.000000,20212.034310,18442.580812,6072.410175,15112.684979,10514.372350,-18278.697822,620.238557,-20618.031397,21802.696205,25781.194959,-17123.313799,-11814.170994,1628.793970,-464.446898,7602.208269,4742.727249,0.000000,-0.007500,1.011000,192.000000,0.000000,8.000000,127.500000,96.000000,15.500000,80.000000,0.000000,0.000000,0.000000,1771493548.623193,0.000000
62.000000,20276.116762,18507.847906,6131.597594,15118.161156,10558.829970,-18213.944818,678.688369,-20548.740989,21846.818548,25830.681721,-17069.088467,-11761.599691,1675.196192,-404.678333,7601.135385,4752.830237,0.000000,-0.007500,1.011000,192.000000,0.000000,0.000000,0.000000,0.000000,0.000000,0.000000,0.000000,0.000000,0.000000,1771493548.623209,0.000000
64.000000,20205.418194,18435.919992,6066.531666,15117.490604,10511.176051,-18294.947540,610.582603,-20626.346246,21836.626153,25819.841125,-17079.973767,-11771.657976,1658.186514,-424.526682,7602.364731,4751.265615,0.000000,-0.007500,1.011000,192.000000,0.000000,0.000000,0.000000,0.000000,0.000000,0.000000,0.000000,0.000000,0.000000,1771493548.623224,0.000000
66.000000,20253.362686,18482.478676,6103.657914,15111.098005,10544.167226,-18241.348057,651.955682,-20578.155885,21808.597065,25788.526331,-17116.407110,-11807.376064,1625.843540,-456.802601,7605.538679,4742.168455,0.000000,-0.007500,1.011000,192.000000,0.000000,0.000000,0.000000,0.000000,0.000000,0.000000,0.000000,0.000000,0.000000,1771493548.623240,0.000000
68.000000,20246.903032,18473.068592,6104.574335,15120.910421,10545.173054,-18244.119673,649.295825,-20583.833228,21865.191682,25856.252117,-17046.557909,-11736.476330,1695.379817,-394.888269,7601.627124,4761.525066,0.000000,-0.007500,1.011000,192.000000,0.000000,0.000000,0.000000,0.000000,0.000000,0.000000,0.000000,0.000000,0.000000,1771493548.623255,0.000000
70.000000,20206.915761,18439.608030,6064.341195,15114.808394,10511.377217,-18284.017537,616.282298,-20623.105243,21801.131582,25777.350459,-17128.655866,-11815.713264,1624.323621,-464.536305,7603.415263,4740.179150,0.000000,-0.007500,1.011000,192.000000,0.000000,0.000000,127.500000,96.000000,15.500000,64.000000,0.000000,0.000000,0.000000,1771493548.623269,0.000000
72.000000,20272.428724,18506.819726,6125.495568,15120.508089,10559.791095,-18215.442385,676.542601,-20553.591317,21839.889507,25823.730329,-17076.688060,-11767.455848,1665.204962,-420.704534,7599.950743,4750.572711,0.000000,-0.007500,1.011000,192.000000,0.000000,0.000000,0.000000,0.000000,0.000000,0.000000,0.000000,0.000000,0.000000,1771493548.623303,0.000000
74.000000,20201.305473,18430.667332,6059.915550,15109.041644,10507.532717,-18293.874656,606.916917,-20632.291810,21831.775824,25816.600122,-17084.175895,-11776.485953,1658.901770,-425.800732,7600.353074,4749.790400,0.000000,-0.007500,1.011000,192.000000,0.000000,0.000000,0.000000,0.000000,0.000000,0.000000,0.000000,0.000000,0.000000,1771493548.623317,0.000000
76.000000,20255.866081,18488.312481,6111.950411,15115.233077,10546.357697,-18234.173147,656.806011,-20574.266681,21812.240399,25787.855779,-17114.708378,-11809.968866,1631.319717,-454.656834,7606.879783,4739.575653,0.000000,-0.007500,1.011000,192.000000,0.000000,0.000000,0.000000,0.000000,0.000000,0.000000,0.000000,0.000000,0.000000,1771493548.623333,0.000000
78.000000,20253.563852,18482.411621,6106.630696,15118.518784,10546.402400,-18243.270307,649.228769,-20580.771039,21873.148903,25858.353181,-17040.411179,-11736.029295,1703.068817,-388.696836,7607.483281,4758.954615,0.000000,-0.007500,1.011000,192.000000,0.000000,0.000000,0.000000,0.000000,0.000000,0.000000,0.000000,0.000000,0.000000,1771493548.623351,0.000000
80.000000,20224.014845,18449.241632,6075.718233,15115.322484,10529.884461,-18271.567615,621.892586,-20612.711681,21816.889562,25790.225064,-17116.295352,-11809.387721,1638.226406,-457.607264,7619.530871,4743.420153,0.000000,-0.007500,1.011000,192.000000,0.000000,0.000000,127.500000,88.000000,15.500000,56.000000,0.000000,0.000000,0.000000,1771493548.623366,0.000000
82.000000,20279.625986,18506.037415,6124.847367,15112.640275,10568.061241,-18209.385062,675.380310,-20552.518434,21858.061476,25840.203564,-17066.026278,-11760.973842,1686.819099,-409.662772,7613.652362,4757.077069,0.000000,-0.007500,1.011000,192.000000,0.000000,0.000000,0.000000,0.000000,0.000000,0.000000,0.000000,0.000000,0.000000,1771493548.623380,0.000000
84.000000,20199.874961,18424.140623,6056.294567,15106.627656,10516.048731,-18293.517029,605.642868,-20634.370522,21844.561022,25824.669102,-17082.723031,-11775.994215,1672.849259,-422.984412,7608.086778,4754.774839,0.000000,-0.007500,1.011000,192.000000,0.000000,0.000000,0.000000,0.000000,0.000000,0.000000,0.000000,0.000000,0.000000,1771493548.623394,0.000000
86.000000,20250.591070,18479.975281,6105.602515,15112.908496,10546.268290,-18238.151757,653.565008,-20577.910015,21816.353120,25792.594349,-17120.698645,-11815.042712,1626.581148,-456.847305,7614.792301,4743.487208,0.000000,-0.007500,1.011000,192.000000,0.000000,0.000000,0.000000,0.000000,0.000000,0.000000,0.000000,0.000000,0.000000,1771493548.623409,0.000000
88.000000,20248.467654,18473.627385,6099.031103,15112.707330,10539.562766,-18247.293621,644.423144,-20585.666071,21878.379211,25864.365800,-17043.607479,-11738.756208,1700.274849,-385.813461,7610.120786,4761.167438,0.000000,-0.007500,1.011000,192.000000,0.000000,0.000000,0.000000,0.000000,0.000000,0.000000,0.000000,0.000000,0.000000,1771493548.623424,0.000000
90.000000,20211.631979,18438.132815,6066.933998,15107.208801,10517.658057,-18278.161380,615.231766,-20621.875897,21820.868173,25784.793590,-17124.230221,-11821.256497,1626.223520,-459.395404,7612.087740,4737.966327,0.000000,-0.007500,1.011000,192.000000,0.000000,0.000000,127.500000,72.000000,15.500000,72.000000,0.000000,0.000000,0.000000,1771493548.623439,0.000000
92.000000,20278.195474,18507.691444,6123.953298,15118.451729,10566.787191,-18206.993426,672.653398,-20551.981992,21862.509473,25835.576753,-17071.278938,-11766.382964,1676.783166,-408.567537,7611.797167,4751.757354,0.000000,-0.007500,1.011000,192.000000,0.000000,0.000000,0.000000,0.000000,0.000000,0.000000,0.000000,0.000000,0.000000,1771493548.623454,0.000000
94.000000,20205.105270,18432.500176,6059.401460,15122.162118,10517.881574,-18283.548150,606.671048,-20631.442443,21850.953621,25824.713805,-17082.410107,-11776.865933,1671.731671,-411.942650,7607.751502,4751.064450,0.000000,-0.007500,1.011000,192.000000,0.000000,0.000000,0.000000,0.000000,0.000000,0.000000,0.000000,0.000000,0.000000,1771493548.623470,0.000000
96.000000,20250.501663,18475.527284,6100.081635,15118.317618,10550.582177,-18235.938935,650.256950,-20583.833228,21824.489155,25793.421363,-17118.105843,-11810.974695,1635.767714,-447.101944,7615.641667,4743.330746,0.000000,-0.007500,1.011000,192.000000,0.000000,0.000000,0.000000,0.000000,0.000000,0.000000,0.000000,0.000000,0.000000,1771493548.623485,0.000000
98.000000,20249.942869,18472.107467,6097.935867,15116.618886,10549.509293,-18238.799958,645.071345,-20588.460039,21875.473484,25850.463015,-17049.597746,-11744.590014,1693.323456,-386.819290,7605.136347,4756.719441,0.000000,-0.007500,1.011000,192.000000,0.000000,0.000000,0.000000,0.000000,0.000000,0.000000,0.000000,0.000000,0.000000,1771493548.623499,0.000000
100.000000,20213.084842,18436.769359,6067.716309,15108.125223,10525.280002,-18282.207046,613.711848,-20624.848679,21821.337559,25782.670174,-17124.118462,-11819.267192,1628.793970,-459.507163,7614.457025,4738.592176,0.000000,-0.007500,1.011000,192.000000,0.000000,0.000000,0.000000,0.000000,0.000000,0.000000,0.000000,0.000000,0.000000,1771493548.623513,0.000000
102.000000,20284.364555,18507.646740,6130.815283,15114.316656,10570.251712,-18210.569705,677.950761,-20550.015038,21860.319002,25825.227895,-17070.496627,-11769.288691,1676.447889,-410.847415,7610.389007,4748.136371,-0.006000,-0.014000,1.010000,192.000000,127.500000,104.000000,127.500000,72.000000,15.500000,72.000000,0.000000,0.000000,0.000000,1771493548.623528,0.000000
104.000000,20207.005168,18430.287353,6065.548189,15110.360397,10518.932106,-18289.113735,608.280374,-20631.688312,21863.649412,25821.092823,-17074.050555,-11774.474296,1674.883267,-411.875595,7606.790377,4748.873979,-0.006000,-0.014000,1.010000,192.000000,0.000000,0.000000,0.000000,0.000000,0.000000,0.000000,0.000000,0.000000,0.000000,1771493549.102452,0.000000
106.000000,20251.194567,18479.304728,6107.927097,15110.114528,10551.632709,-18237.905888,651.821572,-20582.514475,21831.306437,25781.507883,-17116.049482,-11813.723959,1637.958185,-453.583950,7614.054693,4737.429886,-0.006000,-0.014000,1.010000,192.000000,0.000000,0.000000,0.000000,0.000000,0.000000,0.000000,0.000000,0.000000,0.000000,1771493549.102530,0.000000
108.000000,20245.584279,18475.549635,6104.797853,15114.763691,10547.207063,-18243.024438,648.133534,-20585.733126,21885.844694,25850.284201,-17043.138092,-11742.444246,1699.269020,-382.013664,7609.427882,4758.217008,-0.006000,-0.014000,1.010000,192.000000,0.000000,0.000000,0.000000,0.000000,0.000000,0.000000,0.000000,0.000000,0.000000,1771493549.102582,0.000000
110.000000,20210.782613,18439.160995,6066.688128,15103.453708,10517.032208,-18286.967967,613.644792,-20623.351112,21827.908972,25774.422380,-17121.324494,-11818.283715,1633.487837,-453.472192,7610.634877,4736.558168,-0.006000,-0.014000,1.010000,192.000000,0.000000,0.000000,0.000000,0.000000,0.000000,0.000000,0.000000,0.000000,0.000000,1771493549.102645,0.000000
112.000000,20275.446209,18505.478621,6129.742399,15108.795775,10561.936863,-18214.883592,676.341435,-20552.518434,21868.969127,25819.595256,-17069.736668,-11769.288691,1671.441099,-411.897947,7608.891440,4745.789438,-0.002000,-0.008000,1.012000,192.000000,127.500000,120.000000,127.500000,96.000000,15.500000,80.000000,0.000000,0.000000,0.000000,1771493549.102692,0.000000
114.000000,20201.841915,18426.800481,6065.883466,15106.672359,10511.019589,-18291.617130,608.213318,-20634.169356,21863.023563,25820.310512,-17076.106915,-11775.994215,1669.585904,-413.775493,7610.768987,4749.119848,-0.002000,-0.008000,1.012000,192.000000,0.000000,0.000000,0.000000,0.000000,0.000000,0.000000,0.000000,0.000000,0.000000,1771493549.102717,0.000000
116.000000,20242.857366,18469.492313,6102.652085,15107.231153,10538.825159,-18242.063313,648.915845,-20589.644681,21829.831222,25782.513712,-17118.351712,-11817.054369,1629.822150,-454.008633,7617.452159,4737.474589,-0.002000,-0.008000,1.012000,192.000000,0.000000,0.000000,0.000000,0.000000,0.000000,0.000000,0.000000,0.000000,0.000000,1771493549.102740,0.000000
118.000000,20240.778654,18467.234786,6101.333332,15116.216554,10540.389781,-18248.120636,647.015947,-20588.683556,21884.168313,25841.947000,-17049.441284,-11748.725086,1698.017323,-387.243973,7605.181051,4754.104287,-0.002000,-0.008000,1.012000,192.000000,0.000000,0.000000,0.000000,0.000000,0.000000,0.000000,0.000000,0.000000,0.000000,1771493549.102765,0.000000
120.000000,20202.199543,18428.856841,6064.207085,15110.047473,10508.404435,-18287.951444,612.840129,-20626.972094,21829.563001,25769.482645,-17124.677256,-11823.044637,1628.950432,-453.360433,7607.729150,4735.775856,-0.002000,-0.008000,1.012000,192.000000,0.000000,0.000000,0.000000,0.000000,0.000000,0.000000,0.000000,0.000000,0.000000,1771493549.102788,0.000000
122.000000,20269.433590,18498.013139,6122.835710,15116.194202,10555.231339,-18217.923429,674.441537,-20556.340582,21866.152807,25816.309549,-17076.576302,-11772.328528,1671.932837,-414.021363,7605.136347,4747.957557,-0.002000,-0.008000,1.012000,192.000000,0.000000,0.000000,127.500000,80.000000,15.500000,64.000000,0.000000,0.000000,0.000000,1771493549.102812,0.000000
124.000000,20199.204409,18421.994856,6061.077840,15111.947371,10506.482185,-18296.266293,609.196795,-20633.185879,21865.526958,25809.939302,-17078.990290,-11776.016566,1664.757927,-416.435351,7605.024589,4748.181075,-0.002000,-0.008000,1.012000,192.000000,0.000000,0.000000,0.000000,0.000000,0.000000,0.000000,0.000000,0.000000,0.000000,1771493549.102836,0.000000
126.000000,20242.745607,18467.793580,6097.846460,15108.482851,10536.992316,-18248.701781,647.552389,-20587.387155,21831.306437,25771.494302,-17123.716131,-11818.149605,1625.038877,-449.515933,7607.103301,4731.797246,-0.002000,-0.008000,1.012000,192.000000,0.000000,0.000000,0.000000,0.000000,0.000000,0.000000,0.000000,0.000000,0.000000,1771493549.102859,0.000000
128.000000,20250.792235,18481.025813,6102.003885,15116.820051,10542.982583,-18242.219775,648.021775,-20581.083963,21894.226598,25848.831338,-17045.328563,-11740.589051,1700.297201,-377.520964,7606.052769,4754.573674,-0.002000,-0.008000,1.012000,192.000000,0.000000,0.000000,0.000000,0.000000,0.000000,0.000000,0.000000,0.000000,0.000000,1771493549.102898,0.000000
130.000000,20208.949770,18434.534184,6062.933035,15109.399272,10513.120653,-18282.028232,612.326039,-20623.507574,21832.289914,25784.011279,-17122.017398,-11811.309971,1633.711354,-445.939654,7616.714551,4742.414325,-0.002000,-0.008000,1.012000,192.000000,0.000000,0.000000,0.000000,0.000000,0.000000,0.000000,0.000000,0.000000,0.000000,1771493549.102922,0.000000
132.000000,20278.418991,18503.735185,6126.322583,15113.400234,10559.165246,-18210.994388,669.099470,-20552.004344,21871.003136,25815.326073,-17074.005851,-11767.366441,1676.537296,-400.587964,7613.495900,4751.824409,-0.004000,-0.008000,1.006000,192.000000,127.500000,112.000000,127.500000,96.000000,15.500000,56.000000,0.000000,0.000000,0.000000,1771493549.102947,0.000000
134.000000,20205.485249,18424.252382,6061.055489,15109.287513,10504.984618,-18288.554941,601.798368,-20630.637781,21866.689249,25810.274578,-17076.688060,-11771.479162,1667.618950,-406.600583,7609.606696,4753.411383,-0.004000,-0.008000,1.006000,192.000000,0.000000,0.000000,0.000000,0.000000,0.000000,0.000000,0.000000,0.000000,0.000000,1771493549.102970,0.000000
136.000000,20258.838863,18476.935444,6102.585030,15111.343874,10539.763932,-18236.184804,646.434801,-20579.318175,21835.821490,25769.549700,-17116.496517,-11812.919296,1628.749267,-444.307976,7611.260725,4741.676717,-0.004000,-0.008000,1.006000,192.000000,0.000000,0.000000,0.000000,0.000000,0.000000,0.000000,0.000000,0.000000,0.000000,1771493549.102994,0.000000
138.000000,20255.597860,18475.169656,6101.333332,15110.338045,10542.289679,-18237.905888,642.523246,-20584.190856,21895.612406,25835.576753,-17042.825168,-11739.538519,1698.553765,-374.771699,7604.018760,4761.882694,-0.004000,-0.008000,1.006000,192.000000,0.000000,0.000000,0.000000,0.000000,0.000000,0.000000,0.000000,0.000000,0.000000,1771493549.103018,0.000000
140.000000,20218.292799,18433.461301,6064.207085,15099.810374,10510.349036,-18287.638520,606.358124,-20627.307371,21835.039179,25761.748941,-17122.665599,-11820.384779,1633.286671,-454.768593,7608.377350,4739.150970,-0.004000,-0.008000,1.006000,192.000000,0.000000,0.000000,0.000000,0.000000,0.000000,0.000000,0.000000,0.000000,0.000000,1771493549.103041,0.000000
142.000000,20287.493800,18505.009235,6125.808492,15105.130089,10563.926168,-18221.052673,667.959531,-20556.966431,21867.985650,25801.423288,-17075.391659,-11777.782354,1670.122346,-414.758970,7608.913792,4749.209255,-0.004000,-0.008000,1.010000,192.000000,127.500000,112.000000,127.500000,96.000000,15.500000,72.000000,0.000000,0.000000,0.000000,1771493549.103068,0.000000
144.000000,20217.666950,18434.131853,6063.223608,15107.097042,10511.153699,-18294.031119,605.173481,-20631.487147,21873.238310,25806.295968,-17074.676403,-11776.553008,1671.597561,-410.132159,7610.657228,4752.629072,-0.004000,-0.008000,1.010000,192.000000,0.000000,0.000000,0.000000,0.000000,0.000000,0.000000,0.000000,0.000000,0.000000,1771493549.103092,0.000000
146.000000,20270.126494,18494.436859,6101.735664,15107.946409,10541.619127,-18243.918508,646.144229,-20580.659280,21841.096501,25773.684773,-17112.696721,-11811.466433,1634.895996,-444.397383,7619.262650,4737.563996,-0.004000,-0.008000,1.010000,192.000000,0.000000,0.000000,0.000000,0.000000,0.000000,0.000000,0.000000,0.000000,0.000000,1771493549.103116,0.000000
148.000000,20267.936023,18489.720641,6105.222536,15110.539211,10544.077819,-18244.812577,645.831304,-20579.049954,21897.244084,25846.774977,-17038.980667,-11737.392752,1700.274849,-375.799880,7609.673752,4753.612549,-0.004000,-0.008000,1.010000,192.000000,0.000000,0.000000,0.000000,0.000000,0.000000,0.000000,0.000000,0.000000,0.000000,1771493549.103139,0.000000
150.000000,20228.038159,18448.749894,6065.592893,15103.945446,10508.203269,-18288.197313,608.280374,-20621.831193,21843.756359,25763.738246,-17113.322570,-11815.959134,1637.086467,-450.030023,7613.585307,4737.519293,-0.004000,-0.008000,1.010000,192.000000,0.000000,0.000000,0.000000,0.000000,0.000000,0.000000,0.000000,0.000000,0.000000,1771493549.103162,0.000000
152.000000,20303.072966,18520.834270,6125.093237,15111.165060,10558.002956,-18220.203307,669.434746,-20550.797349,21885.665880,25806.139506,-17067.099162,-11769.422802,1673.452756,-411.406208,7607.192708,4743.040173,-0.004000,-0.006000,1.014000,192.000000,127.500000,112.000000,127.500000,104.000000,15.500000,88.000000,0.000000,0.000000,0.000000,1771493549.103198,0.000000
154.000000,20230.742720,18443.206661,6062.821277,15109.220458,10510.013760,-18292.667662,604.391170,-20629.028455,21889.018642,25793.667232,-17068.462618,-11772.462639,1680.895887,-408.165205,7607.125653,4747.398764,-0.004000,-0.006000,1.014000,192.000000,0.000000,0.000000,0.000000,0.000000,0.000000,0.000000,0.000000,0.000000,0.000000,1771493549.103221,0.000000
156.000000,20276.675555,18487.887798,6100.506318,15108.326388,10539.674525,-18241.146891,644.825476,-20581.173370,21853.948755,25746.393293,-17111.646189,-11815.221526,1629.486874,-448.688918,7614.568784,4742.168455,-0.004000,-0.006000,1.014000,192.000000,0.000000,0.000000,0.000000,0.000000,0.000000,0.000000,0.000000,0.000000,0.000000,1771493549.103245,0.000000
158.000000,20288.410221,18493.989825,6101.221573,15113.780214,10540.903871,-18239.649324,642.053859,-20579.228768,21919.752290,25819.349387,-17034.286801,-11742.131322,1706.667448,-377.856240,7608.980847,4763.693185,-0.004000,-0.006000,1.014000,192.000000,0.000000,0.000000,0.000000,0.000000,0.000000,0.000000,0.000000,0.000000,0.000000,1771493549.103268,0.000000
160.000000,20250.859290,18456.550653,6067.470439,15109.600438,10519.736769,-18284.241055,608.794464,-20620.154812,21861.704810,25748.069674,-17111.780299,-11818.127253,1633.756057,-451.013500,7613.898231,4741.632014,-0.004000,-0.006000,1.014000,192.000000,0.000000,0.000000,0.000000,0.000000,0.000000,0.000000,0.000000,0.000000,0.000000,1771493549.103292,0.000000
162.000000,20316.193440,18526.377502,6128.825978,15119.099929,10568.955310,-18219.890382,671.044072,-20549.478596,21899.143982,25795.410668,-17063.724049,-11768.238159,1675.956151,-411.383857,7613.786473,4752.092630,-0.004000,-0.005000,1.011000,192.000000,127.500000,112.000000,127.500000,112.000000,15.500000,64.000000,0.000000,0.000000,0.000000,1771493549.103315,0.000000
164.000000,20242.522090,18450.225109,6060.429640,15109.399272,10517.076912,-18300.870752,604.100597,-20627.888516,21895.679461,25795.053040,-17066.361554,-11771.881494,1673.519811,-410.333325,7613.562955,4750.416249,-0.004000,-0.005000,1.011000,192.000000,0.000000,0.000000,0.000000,0.000000,0.000000,0.000000,0.000000,0.000000,0.000000,1771493549.103338,0.000000
166.000000,20288.030241,18493.878066,6099.299323,15107.186449,10546.715325,-18252.456874,643.417316,-20581.151018,21863.761170,25751.288325,-17108.807517,-11815.176823,1631.342069,-451.505238,7616.692199,4738.167493,-0.004000,-0.005000,1.011000,192.000000,0.000000,0.000000,0.000000,0.000000,0.000000,0.000000,0.000000,0.000000,0.000000,1771493549.103361,0.000000
168.000000,20298.826134,18501.857639,6103.836728,15112.439109,10555.790133,-18244.969040,646.188932,-20574.289033,21928.402415,25821.919837,-17032.297496,-11740.611403,1705.952192,-380.985484,7611.059560,4758.105249,-0.004000,-0.005000,1.011000,192.000000,0.000000,0.000000,0.000000,0.000000,0.000000,0.000000,0.000000,0.000000,0.000000,1771493549.103384,0.000000
170.000000,20256.402523,18457.534129,6067.604550,15104.012502,10526.934031,-18287.236188,610.180272,-20618.612542,21873.484179,25754.037589,-17109.388663,-11815.042712,1634.605424,-448.241883,7618.078007,4739.977984,-0.004000,-0.005000,1.011000,192.000000,0.000000,0.000000,0.000000,0.000000,0.000000,0.000000,0.000000,0.000000,0.000000,1771493549.103407,0.000000
172.000000,20325.089434,18525.505784,6130.122379,15109.242810,10573.000976,-18217.945781,671.066424,-20546.617573,21905.424822,25795.477724,-17061.690040,-11770.026299,1673.810384,-408.701647,7610.813691,4749.790400,-0.001000,-0.006500,1.010500,192.000000,0.000000,8.000000,127.500000,96.000000,15.500000,72.000000,0.000000,0.000000,0.000000,1771493549.103430,0.000000
174.000000,20252.133340,18450.605089,6064.542361,15105.644179,10516.115787,-18303.508258,604.100597,-20622.837022,21906.296540,25793.868398,-17058.270223,-11770.920369,1678.258381,-404.208947,7603.459967,4746.772915,-0.001000,-0.006500,1.010500,192.000000,0.000000,0.000000,0.000000,0.000000,0.000000,0.000000,0.000000,0.000000,0.000000,1771493549.103456,0.000000
176.000000,20298.043823,18498.057842,6101.154518,15104.928923,10547.788208,-18255.921394,644.311386,-20574.959585,21874.177083,25751.333028,-17103.197229,-11813.902773,1653.135020,-448.398346,7603.303504,4727.125731,-0.001000,-0.006500,1.010500,192.000000,0.000000,0.000000,0.000000,0.000000,0.000000,0.000000,0.000000,0.000000,0.000000,1771493549.103480,0.000000
178.000000,20302.760041,18501.835287,6109.469367,15112.550868,10554.784304,-18255.697877,646.054822,-20570.936271,21924.244991,25817.605951,-17029.436473,-11741.281955,1690.864765,-391.289638,7602.342379,4747.197598,-0.001000,-0.006500,1.010500,192.000000,0.000000,0.000000,0.000000,0.000000,0.000000,0.000000,0.000000,0.000000,0.000000,1771493549.103504,0.000000
180.000000,20261.074038,18462.697382,6070.219704,15104.280723,10522.486034,-18295.126354,609.263850,-20614.678635,21872.970089,25750.863642,-17101.230276,-11810.997046,1635.901825,-443.257444,7611.819519,4737.832217,-0.001000,-0.006500,1.010500,192.000000,0.000000,0.000000,0.000000,0.000000,0.000000,0.000000,0.000000,0.000000,0.000000,1771493549.103527,0.000000
182.000000,20326.542297,18526.757482,6130.480007,15116.775348,10571.503409,-18216.604676,672.407528,-20544.561213,21903.569627,25787.431096,-17060.773618,-11772.574398,1674.883267,-419.095209,7606.902135,4750.460953,0.001500,-0.007250,1.010250,192.000000,0.000000,16.000000,127.500000,96.000000,15.500000,72.000000,0.000000,0.000000,0.000000,1771493549.103550,0.000000
184.000000,20265.723201,18464.507874,6069.079765,15117.669418,10519.021513,-18295.662796,608.682705,-20615.595056,21911.392738,25790.962671,-17054.760999,-11767.589959,1683.891020,-407.785226,7606.700970,4757.501752,0.001500,-0.007250,1.010250,192.000000,0.000000,0.000000,0.000000,0.000000,0.000000,0.000000,0.000000,0.000000,0.000000,1771493549.103573,0.000000
186.000000,20306.693948,18505.255104,6105.937792,15114.316656,10548.726982,-18253.261537,644.579607,-20572.791466,21883.028374,25747.689694,-17097.385776,-11809.141852,1639.299290,-446.520799,7614.233507,4743.241339,0.001500,-0.007250,1.010250,192.000000,0.000000,0.000000,0.000000,0.000000,0.000000,0.000000,0.000000,0.000000,0.000000,1771493549.103597,0.000000
188.000000,20304.257608,18500.538886,6107.815338,15114.160194,10552.012688,-18251.026362,645.943063,-20574.512550,21937.119596,25811.749793,-17026.910725,-11738.935022,1707.650925,-380.292580,7608.086778,4759.178133,0.001500,-0.007250,1.010250,192.000000,0.000000,0.000000,0.000000,0.000000,0.000000,0.000000,0.000000,0.000000,0.000000,1771493549.103620,0.000000
190.000000,20263.108046,18457.623536,6069.571503,15108.929885,10520.966115,-18292.041813,608.258022,-20618.076100,21876.188740,25738.413720,-17106.035901,-11816.339113,1638.628738,-450.275892,7614.188804,4738.882749,0.001500,-0.007250,1.010250,192.000000,0.000000,0.000000,0.000000,0.000000,0.000000,0.000000,0.000000,0.000000,0.000000,1771493549.103644,0.000000
192.000000,20333.516041,18531.093720,6132.178740,15118.407025,10571.056374,-18215.442385,669.680616,-20545.097654,21911.973883,25776.992831,-17059.700735,-11771.210941,1682.907544,-408.813406,7613.160624,4748.538703,0.001750,-0.009625,1.011125,192.000000,0.000000,8.000000,127.500000,80.000000,15.500000,80.000000,0.000000,0.000000,0.000000,1771493549.103667,0.000000
194.000000,20265.186759,18461.579795,6066.039928,15116.864755,10521.055522,-18290.611302,603.139472,-20621.272400,21917.137136,25786.849950,-17055.677421,-11764.416011,1692.407035,-398.978639,7611.551298,4754.014880,0.001750,-0.009625,1.011125,192.000000,0.000000,0.000000,0.000000,0.000000,0.000000,0.000000,0.000000,0.000000,0.000000,1771493549.103691,0.000000
196.000000,20306.850410,18507.467926,6109.715236,15116.507127,10550.068086,-18245.684295,643.998461,-20574.691364,21880.681441,25744.426339,-17101.654959,-11811.198212,1643.881398,-442.497485,7616.178109,4739.061563,0.001750,-0.009625,1.011125,192.000000,0.000000,0.000000,0.000000,0.000000,0.000000,0.000000,0.000000,0.000000,0.000000,1771493549.103714,0.000000
198.000000,20313.019492,18514.084043,6116.532518,15122.609153,10555.946595,-18244.276135,651.419240,-20566.510626,21938.885383,25819.259980,-17022.798004,-11733.302383,1721.531358,-367.283865,7609.807862,4761.927397,0.001750,-0.009625,1.011125,192.000000,0.000000,0.000000,0.000000,0.000000,0.000000,0.000000,0.000000,0.000000,0.000000,1771493549.103738,0.000000
200.000000,20263.018639,18464.999612,6070.577332,15109.823955,10518.082740,-18292.019462,608.481539,-20619.461908,21881.799028,25749.231964,-17101.722014,-11810.214735,1637.824075,-437.893026,7614.457025,4745.632976,0.001750,-0.009625,1.011125,192.000000,0.000000,0.000000,0.000000,0.000000,0.000000,0.000000,0.000000,0.000000,0.000000,1771493549.103762,0.000000
202.000000,20329.917411,18535.787587,6131.508187,15113.646104,10564.820238,-18214.816536,667.557200,-20551.132625,21911.079813,25785.374735,-17063.008793,-11770.518037,1678.280732,-408.276964,7612.221850,4757.926435,0.001875,-0.009813,1.008563,192.000000,0.000000,8.000000,127.500000,88.000000,15.500000,56.000000,0.000000,0.000000,0.000000,1771493549.103785,0.000000
204.000000,20262.929232,18463.278528,6069.795021,15113.422586,10514.864089,-18288.309072,604.279411,-20625.183955,21910.699834,25794.784819,-17061.175950,-11767.768773,1687.579058,-396.139967,7613.317086,4762.597950,0.001875,-0.009813,1.008563,192.000000,0.000000,0.000000,0.000000,0.000000,0.000000,0.000000,0.000000,0.000000,0.000000,1771493549.103808,0.000000
206.000000,20313.533582,18509.814860,6109.335257,15110.025121,10544.703668,-18247.606545,646.300691,-20575.205454,21883.654223,25758.507938,-17101.453793,-11809.722997,1647.323566,-434.741430,7618.525042,4749.298662,0.001875,-0.009813,1.008563,192.000000,0.000000,0.000000,0.000000,0.000000,0.000000,0.000000,0.000000,0.000000,0.000000,1771493549.103834,0.000000
208.000000,20310.538448,18510.910095,6112.196280,15109.689845,10554.449028,-18248.008877,647.798258,-20574.132571,21943.311029,25820.466974,-17026.106063,-11737.839787,1711.987163,-373.899981,7611.841871,4763.961406,0.001875,-0.009813,1.008563,192.000000,0.000000,0.000000,0.000000,0.000000,0.000000,0.000000,0.000000,0.000000,0.000000,1771493549.103857,0.000000
210.000000,20266.125532,18463.814970,6068.029233,15104.861868,10518.507423,-18293.852305,606.402827,-20620.691254,21882.290767,25750.036627,-17102.996064,-11812.829889,1649.648148,-442.810409,7618.949726,4745.990604,0.001875,-0.009813,1.008563,192.000000,0.000000,0.000000,0.000000,0.000000,0.000000,0.000000,0.000000,0.000000,0.000000,1771493549.103880,0.000000
212.000000,20330.811480,18528.255049,6129.384772,15111.142708,10567.815371,-18215.643551,668.428918,-20550.864405,21906.721223,25783.184264,-17064.148732,-11775.927159,1682.773433,-410.065104,7609.785510,4751.422078,0.002938,-0.007906,1.008281,192.000000,0.000000,16.000000,127.500000,104.000000,15.500000,64.000000,0.000000,0.000000,0.000000,1771493549.103904,0.000000
214.000000,20261.744590,18459.679897,6071.963140,15113.936676,10519.781473,-18288.733755,608.950926,-20624.312237,21911.996235,25790.739154,-17059.410162,-11768.886360,1682.996951,-393.927144,7611.841871,4759.893389,0.002938,-0.007906,1.008281,192.000000,0.000000,0.000000,0.000000,0.000000,0.000000,0.000000,0.000000,0.000000,0.000000,1771493549.103927,0.000000
216.000000,20306.135155,18508.764328,6105.758978,15109.555734,10548.771685,-18246.310144,646.926540,-20577.641794,21875.339374,25747.421473,-17103.376043,-11813.165166,1644.864874,-436.440162,7620.849624,4746.974080,0.002938,-0.007906,1.008281,192.000000,0.000000,0.000000,0.000000,0.000000,0.000000,0.000000,0.000000,0.000000,0.000000,1771493549.103951,0.000000
218.000000,20313.980617,18515.112223,6119.482949,15116.484775,10555.588967,-18239.872842,651.933331,-20569.215187,21938.885383,25819.997587,-17026.195470,-11737.772732,1716.412808,-374.369368,7610.389007,4762.642653,0.002938,-0.007906,1.008281,192.000000,0.000000,0.000000,0.000000,0.000000,0.000000,0.000000,0.000000,0.000000,0.000000,1771493549.103966,0.000000
220.000000,20268.293651,18467.234786,6077.238152,15107.387615,10523.648324,-18289.806639,612.795426,-20617.226734,21883.341299,25750.237793,-17097.788107,-11809.901811,1653.313834,-441.558712,7618.234470,4749.142200,0.002938,-0.007906,1.008281,192.000000,0.000000,0.000000,0.000000,0.000000,0.000000,0.000000,0.000000,0.000000,0.000000,1771493549.103976,0.000000
222.000000,20325.961152,18528.679732,6134.145693,15107.722891,10569.201180,-18218.728092,673.770985,-20550.439721,21911.325683,25785.754715,-17059.812493,-11773.513171,1682.684026,-406.667639,7616.982772,4758.239360,0.003469,-0.005953,1.007141,192.000000,0.000000,16.000000,127.500000,112.000000,15.500000,56.000000,0.000000,0.000000,0.000000,1771493549.103987,0.000000
224.000000,20254.435570,18458.763475,6068.610378,15105.957103,10510.930182,-18295.975720,612.415446,-20625.206307,21910.409261,25787.498151,-17062.338240,-11774.362537,1678.370139,-403.024304,7615.999295,4759.848685,0.003469,-0.005953,1.007141,192.000000,0.000000,0.000000,0.000000,0.000000,0.000000,0.000000,0.000000,0.000000,0.000000,1771493549.569906,0.000000
226.000000,20289.885436,18496.828496,6102.652085,15107.924057,10540.702705,-18253.462702,648.446458,-20584.704946,21868.589147,25740.693598,-17108.829869,-11818.686046,1634.761886,-445.783191,7617.094531,4744.291871,0.003469,-0.005953,1.007141,192.000000,0.000000,0.000000,0.000000,0.000000,0.000000,0.000000,0.000000,0.000000,0.000000,1771493549.569980,0.000000
228.000000,20298.759079,18503.779889,6111.592783,15111.187412,10547.967022,-18251.898080,653.676767,-20577.015946,21924.446157,25808.821715,-17037.214880,-11747.160464,1704.946364,-383.064196,7609.204365,4762.620302,0.003469,-0.005953,1.007141,192.000000,0.000000,0.000000,0.000000,0.000000,0.000000,0.000000,0.000000,0.000000,0.000000,1771493549.570017,0.000000
230.000000,20250.278145,18455.991859,6071.337291,15100.615037,10513.567688,-18301.206029,610.895528,-20627.799109,21869.796141,25743.353455,-17109.902753,-11820.764759,1636.706488,-451.684052,7620.223775,4744.001298,0.003469,-0.005953,1.007141,192.000000,0.000000,0.000000,0.000000,0.000000,0.000000,0.000000,0.000000,0.000000,0.000000,1771493549.570059,0.000000
232.000000,20321.803727,18529.730264,6134.033934,15106.091214,10566.250749,-18226.305333,673.681578,-20552.406675,21901.312101,25785.307680,-17068.887302,-11780.084584,1679.957113,-414.334287,7619.061484,4749.633938,0.003469,-0.005953,1.007141,192.000000,0.000000,0.000000,0.000000,0.000000,0.000000,0.000000,0.000000,0.000000,0.000000,1771493549.570096,0.000000
234.000000,20252.714485,18459.299917,6075.159439,15102.827859,10519.759121,-18297.361529,611.677839,-20624.245182,21906.676520,25790.247415,-17059.611328,-11771.099182,1688.026093,-401.616144,7618.525042,4754.305453,0.003469,-0.005953,1.007141,192.000000,0.000000,0.000000,127.500000,120.000000,15.500000,56.000000,0.000000,0.000000,0.000000,1771493549.570138,0.000000
236.000000,20290.377175,18497.543752,6105.893088,15103.185487,10543.742543,-18256.077857,646.501857,-20584.772001,21869.617327,25746.013313,-17108.695758,-11817.411997,1639.902787,-445.291453,7620.760217,4740.134447,0.003469,-0.005953,1.007141,192.000000,0.000000,0.000000,0.000000,0.000000,0.000000,0.000000,0.000000,0.000000,0.000000,1771493549.570168,0.000000
238.000000,20296.076869,18501.567066,6111.458672,15106.650008,10547.184711,-18245.326667,651.530999,-20580.234597,21925.697854,25812.643863,-17037.550156,-11745.595842,1705.169881,-374.637589,7614.278211,4760.206313,0.003469,-0.005953,1.007141,192.000000,0.000000,0.000000,0.000000,0.000000,0.000000,0.000000,0.000000,0.000000,0.000000,1771493549.570186,0.000000
240.000000,20252.468616,18454.762513,6072.544285,15106.046510,10511.265458,-18291.281854,612.728371,-20628.804937,21867.248042,25745.633333,-17112.495555,-11821.122387,1632.996098,-440.798752,7619.597926,4743.353098,0.003469,-0.005953,1.007141,192.000000,0.000000,0.000000,0.000000,0.000000,0.000000,0.000000,0.000000,0.000000,0.000000,1771493549.570196,0.000000
242.000000,20317.780413,18524.924639,6128.513053,15110.561563,10557.399459,-18216.358807,673.703930,-20558.911033,21897.311139,25782.379601,-17072.195360,-11782.520924,1669.898828,-406.153548,7616.088702,4753.389031,0.003469,-0.005953,1.007141,192.000000,0.000000,0.000000,0.000000,0.000000,0.000000,0.000000,0.000000,0.000000,0.000000,1771493549.570207,0.000000
244.000000,20253.496796,18457.757647,6069.951483,15109.689845,10511.488975,-18293.740546,614.270641,-20627.307371,21899.658072,25789.934491,-17065.579243,-11775.234255,1681.477032,-399.537432,7612.780644,4756.831200,-0.002000,-0.002000,1.006000,192.000000,127.500000,120.000000,127.500000,120.000000,15.500000,56.000000,0.000000,0.000000,0.000000,1771493549.570218,0.000000
246.000000,20288.812553,18495.532095,6101.221573,15106.828822,10535.740618,-18255.586118,647.328871,-20589.912902,21861.660106,25744.180470,-17111.847354,-11824.184576,1638.114648,-445.447915,7619.888499,4741.542607,-0.002000,-0.002000,1.006000,192.000000,0.000000,0.000000,0.000000,0.000000,0.000000,0.000000,0.000000,0.000000,0.000000,1771493549.570229,0.000000
248.000000,20299.027300,18505.389214,6110.184623,15111.612095,10541.216796,-18247.025400,656.180162,-20579.653451,21918.612351,25814.521410,-17040.500586,-11751.831979,1696.586811,-375.084624,7613.764121,4763.760241,-0.002000,-0.002000,1.006000,192.000000,0.000000,0.000000,0.000000,0.000000,0.000000,0.000000,0.000000,0.000000,0.000000,1771493549.570240,0.000000
250.000000,20253.630907,18462.965603,6068.073936,15104.168964,10506.012798,-18297.763860,612.795426,-20627.106205,21864.655240,25752.338857,-17111.757947,-11819.289544,1635.723011,-437.602453,7619.083836,4747.912854,-0.002000,-0.002000,1.006000,192.000000,0.000000,0.000000,0.000000,0.000000,0.000000,0.000000,0.000000,0.000000,0.000000,1771493549.570251,0.000000
252.000000,20328.755120,18537.061636,6130.927042,15110.740377,10558.807618,-18222.259667,677.816651,-20549.053913,21894.159543,25791.409706,-17069.803723,-11776.038918,1673.408052,-405.930031,7613.965286,4753.321976,-0.002000,-0.002000,1.006000,192.000000,0.000000,0.000000,0.000000,0.000000,0.000000,0.000000,0.000000,0.000000,0.000000,1771493549.570262,0.000000
254.000000,20259.531767,18465.513702,6070.577332,15103.185487,10508.583249,-18297.048604,615.120007,-20621.831193,21903.346110,25797.578788,-17058.314926,-11767.299386,1684.248648,-398.308086,7611.797167,4754.618377,-0.002000,-0.002000,1.006000,192.000000,0.000000,0.000000,127.500000,112.000000,15.500000,72.000000,0.000000,0.000000,0.000000,1771493549.570272,0.000000
0.000000,20299.004948,18508.898438,6104.954315,15103.587819,10537.148778,-18250.668734,650.525171,-20580.055783,21863.537653,25756.920964,-17105.633569,-11813.165166,1636.728839,-438.652985,7618.033304,4742.101400,-0.002000,-0.002000,1.006000,192.000000,0.000000,0.000000,0.000000,0.000000,0.000000,0.000000,0.000000,0.000000,0.000000,1771493549.570283,0.000000
2.000000,20305.956341,18513.927581,6111.592783,15109.443976,10541.999107,-18247.070104,656.291921,-20572.411486,21922.546258,25829.944113,-17030.554060,-11737.929194,1704.007590,-368.714377,7614.591135,4765.995415,-0.002000,-0.002000,1.006000,192.000000,0.000000,0.000000,0.000000,0.000000,0.000000,0.000000,0.000000,0.000000,0.000000,1771493549.570294,0.000000
4.000000,20253.966183,18461.222167,6063.514181,15104.638351,10504.559935,-18298.210895,615.120007,-20622.099414,21865.482255,25757.345647,-17106.013549,-11811.466433,1635.834770,-438.228302,7611.797167,4749.209255,-0.002000,-0.002000,1.006000,192.000000,0.000000,0.000000,0.000000,0.000000,0.000000,0.000000,0.000000,0.000000,0.000000,1771493549.570304,0.000000
6.000000,20321.088472,18531.540755,6132.290498,15117.132976,10550.850397,-18225.791243,680.096529,-20545.164710,21892.751383,25789.398049,-17067.412086,-11772.686156,1665.562590,-407.271136,7604.912830,4756.540627,-0.002000,-0.002000,1.006000,192.000000,0.000000,0.000000,0.000000,0.000000,0.000000,0.000000,0.000000,0.000000,0.000000,1771493549.570314,0.000000
8.000000,20257.095427,18466.966565,6075.271198,15112.684979,10509.454967,-18291.795944,619.009211,-20613.382234,21902.273226,25797.958767,-17051.587051,-11761.152656,1670.547029,-398.710418,7608.600868,4761.927397,-0.002000,-0.008000,1.016000,192.000000,127.500000,120.000000,127.500000,96.000000,15.500000,96.000000,0.000000,0.000000,0.000000,1771493549.570324,0.000000
10.000000,20296.658015,18505.702139,6104.887260,15106.247676,10532.276098,-18252.367467,650.793392,-20576.032469,21865.258737,25752.361208,-17100.604427,-11810.482956,1629.710392,-442.363375,7611.394836,4746.482342,-0.002000,-0.008000,1.016000,192.000000,0.000000,0.000000,0.000000,0.000000,0.000000,0.000000,0.000000,0.000000,0.000000,1771493549.570336,0.000000
12.000000,20310.158469,18519.157889,6118.275955,15110.293342,10541.999107,-18237.302391,662.058671,-20563.582547,21927.016607,25826.993683,-17024.764958,-11738.264470,1703.113521,-373.452946,7606.924487,4763.402613,-0.002000,-0.008000,1.016000,192.000000,0.000000,0.000000,0.000000,0.000000,0.000000,0.000000,0.000000,0.000000,0.000000,1771493549.570346,0.000000
14.000000,20257.587166,18466.765400,6070.309111,15096.770537,10502.771795,-18300.289607,612.482502,-20620.266571,21871.986612,25757.278592,-17098.123383,-11813.209869,1641.355651,-442.653947,7611.528946,4743.777781,-0.002000,-0.008000,1.016000,192.000000,0.000000,0.000000,0.000000,0.000000,0.000000,0.000000,0.000000,0.000000,0.000000,1771493549.570359,0.000000
16.000000,20330.453852,18542.135482,6135.240929,15107.968760,10553.912586,-18222.661999,679.694197,-20541.499024,21900.105107,25791.297947,-17060.304232,-11774.250778,1665.562590,-407.047618,7606.499804,4749.611586,-0.002000,-0.008000,1.016000,192.000000,0.000000,0.000000,0.000000,0.000000,0.000000,0.000000,0.000000,0.000000,0.000000,1771493549.570369,0.000000
18.000000,20264.963241,18470.252272,6074.444184,15103.006673,10507.264496,-18293.226456,619.232728,-20611.661149,21915.505459,25807.726479,-17045.753246,-11758.872778,1680.001817,-387.869822,7608.064426,4759.111078,-0.002000,-0.006000,1.014000,192.000000,127.500000,120.000000,127.500000,104.000000,15.500000,88.000000,0.000000,0.000000,0.000000,1771493549.570380,0.000000
20.000000,20301.955378,18509.457232,6101.690960,15101.173830,10536.210005,-18255.764932,650.860447,-20573.104390,21870.176121,25758.731456,-17098.749232,-11809.208907,1636.594729,-434.540264,7613.495900,4745.230644,-0.002000,-0.006000,1.014000,192.000000,0.000000,0.000000,0.000000,0.000000,0.000000,0.000000,0.000000,0.000000,0.000000,1771493549.570390,0.000000
22.000000,20302.290654,18515.223982,6108.642353,15111.098005,10535.360639,-18247.606545,656.962473,-20568.209358,21924.110880,25823.864439,-17026.553098,-11736.610441,1695.960962,-373.743519,7601.582420,4763.782592,-0.002000,-0.006000,1.014000,192.000000,0.000000,0.000000,0.000000,0.000000,0.000000,0.000000,0.000000,0.000000,0.000000,1771493549.570401,0.000000
24.000000,20254.256756,18467.346545,6059.982605,15108.214630,10499.888420,-18292.913531,614.091827,-20620.333626,21865.482255,25760.854871,-17104.337168,-11810.527660,1629.419819,-434.607319,7608.064426,4745.767086,-0.002000,-0.006000,1.014000,192.000000,0.000000,0.000000,0.000000,0.000000,0.000000,0.000000,0.000000,0.000000,0.000000,1771493549.570411,0.000000
26.000000,20326.296428,18540.235584,6128.736571,15118.563487,10549.822217,-18221.320894,678.934238,-20545.052951,21898.160505,25796.751773,-17063.858159,-11769.355746,1673.385700,-399.626839,7606.589211,4756.272406,-0.002000,-0.006000,1.014000,192.000000,0.000000,0.000000,0.000000,0.000000,0.000000,0.000000,0.000000,0.000000,0.000000,1771493549.570422,0.000000
28.000000,20265.522035,18473.157999,6071.404346,15116.194202,10506.750406,-18295.171058,618.338659,-20613.404586,21907.347072,25804.217256,-17053.106970,-11761.510284,1670.927009,-391.311990,7603.169394,4758.172304,-0.002000,0.000000,1.012000,192.000000,127.500000,120.000000,0.000000,0.000000,15.500000,80.000000,0.000000,0.000000,0.000000,1771493549.570433,0.000000
30.000000,20303.005910,18515.402796,6104.149652,15114.339008,10532.723133,-18254.110903,653.341490,-20570.735105,21878.759191,25764.252337,-17096.067023,-11803.933895,1637.824075,-432.305090,7615.798130,4743.218987,-0.002000,0.000000,1.012000,192.000000,0.000000,0.000000,0.000000,0.000000,0.000000,0.000000,0.000000,0.000000,0.000000,1771493549.570443,0.000000
32.000000,20311.343111,18527.003351,6114.856138,15112.819089,10540.166264,-18243.069141,661.544581,-20560.565062,21935.577325,25836.068491,-17021.859231,-11728.161481,1707.472111,-363.126440,7607.639743,4760.608645,-0.002000,0.000000,1.012000,192.000000,0.000000,0.000000,0.000000,0.000000,0.000000,0.000000,0.000000,0.000000,0.000000,1771493549.570454,0.000000
34.000000,20256.380171,18468.866464,6069.415041,15098.290455,10509.387911,-18299.239075,616.483464,-20615.617408,21878.870950,25764.162930,-17098.346901,-11805.811442,1640.305119,-436.171941,7610.947801,4740.983813,-0.002000,0.000000,1.012000,192.000000,0.000000,0.000000,0.000000,0.000000,0.000000,0.000000,0.000000,0.000000,0.000000,1771493549.570465,0.000000
36.000000,20326.721111,18536.927526,6128.848330,15108.751072,10561.243959,-18225.321856,675.402662,-20543.890660,21908.062328,25794.717764,-17060.237176,-11769.623967,1679.554782,-401.549089,7610.098435,4749.700993,-0.002000,0.000000,1.012000,192.000000,0.000000,0.000000,0.000000,0.000000,0.000000,0.000000,0.000000,0.000000,0.000000,1771493549.570476,0.000000
38.000000,20270.417067,18473.895606,6075.539419,15109.466327,10520.362618,-18291.304206,617.265775,-20608.509553,21923.641494,25805.580712,-17047.675496,-11758.001060,1691.468262,-390.484976,7607.438577,4752.874941,-0.002000,-0.003000,1.009000,192.000000,127.500000,120.000000,127.500000,104.000000,15.500000,56.000000,0.000000,0.000000,0.000000,1771493549.570487,0.000000
40.000000,20301.575399,18505.568028,6104.730797,15103.900743,10543.228453,-18249.260574,645.719546,-20574.780771,21881.642566,25759.513767,-17098.592770,-11809.790052,1641.266244,-434.786133,7617.072179,4736.736981,-0.002000,-0.003000,1.009000,192.000000,0.000000,0.000000,0.000000,0.000000,0.000000,0.000000,0.000000,0.000000,0.000000,1771493549.570499,0.000000
42.000000,20316.036977,18524.142328,6121.516957,15106.895877,10556.415982,-18240.744560,658.951778,-20559.358067,21937.745445,25835.017959,-17020.696941,-11734.822301,1710.601355,-362.701757,7614.367618,4756.227703,-0.002000,-0.003000,1.009000,192.000000,0.000000,0.000000,0.000000,0.000000,0.000000,0.000000,0.000000,0.000000,0.000000,1771493549.570510,0.000000
44.000000,20262.772770,18469.313499,6073.304245,15101.240885,10519.647362,-18293.449973,617.064609,-20612.286998,21876.524016,25767.627450,-17093.876552,-11806.481994,1650.139886,-422.537377,7619.463816,4738.078086,-0.002000,-0.003000,1.009000,192.000000,0.000000,0.000000,0.000000,0.000000,0.000000,0.000000,0.000000,0.000000,0.000000,1771493549.570520,0.000000
46.000000,20328.956286,18533.999447,6132.357554,15106.784118,10564.507313,-18229.568688,679.023645,-20542.326038,21901.893246,25797.310567,-17057.666726,-11771.255645,1683.131061,-400.163281,7613.697066,4742.123752,-0.002000,-0.003000,1.009000,192.000000,0.000000,0.000000,0.000000,0.000000,0.000000,0.000000,0.000000,0.000000,0.000000,1771493549.570532,0.000000
48.000000,20266.706677,18470.989879,6079.652140,15108.214630,10524.073008,-18296.825087,621.333792,-20609.224809,21907.704700,25809.984006,-17045.105045,-11759.811552,1686.819099,-389.322685,7611.104263,4746.817618,-0.002000,-0.003000,1.009000,192.000000,0.000000,0.000000,127.500000,112.000000,15.500000,40.000000,0.000000,0.000000,0.000000,1771493549.570544,0.000000
50.000000,20299.586093,18506.953836,6108.172966,15101.263237,10553.644366,-18254.692048,649.720508,-20573.707887,21868.365630,25760.810168,-17095.932912,-11810.974695,1639.656918,-437.043659,7616.826310,4735.284118,-0.002000,-0.003000,1.009000,192.000000,0.000000,0.000000,0.000000,0.000000,0.000000,0.000000,0.000000,0.000000,0.000000,1771493549.570555,0.000000
52.000000,20317.355730,18521.437767,6120.377018,15109.086348,10565.379031,-18237.212984,660.181124,-20560.542710,21927.441290,25833.833317,-17020.763996,-11736.409275,1714.982297,-361.606522,7611.260725,4758.060546,-0.002000,-0.003000,1.009000,192.000000,0.000000,0.000000,0.000000,0.000000,0.000000,0.000000,0.000000,0.000000,0.000000,1771493549.570566,0.000000
54.000000,20270.059439,18470.542845,6076.008806,15106.091214,10527.068141,-18290.208970,619.120970,-20611.370577,21879.027412,25769.080313,-17088.333319,-11806.012607,1653.984386,-423.274985,7620.603755,4745.208293,-0.002000,-0.003000,1.009000,192.000000,0.000000,0.000000,0.000000,0.000000,0.000000,0.000000,0.000000,0.000000,0.000000,1771493549.570577,0.000000
56.000000,20340.668600,18544.482415,6135.017411,15106.381787,10565.915473,-18224.159565,682.108186,-20535.441701,21899.970996,25800.126886,-17054.135150,-11771.367403,1677.811346,-396.877575,7612.601830,4750.326842,-0.002000,-0.003000,1.009000,192.000000,0.000000,0.000000,0.000000,0.000000,0.000000,0.000000,0.000000,0.000000,0.000000,1771493549.570587,0.000000
58.000000,20273.322794,18477.382478,6075.092384,15098.223400,10513.366522,-18298.255598,618.651583,-20606.453193,21913.002063,25813.739099,-17041.215842,-11757.554025,1686.573230,-387.981580,7605.449272,4749.343365,-0.002000,-0.007500,1.010500,192.000000,127.500000,120.000000,127.500000,80.000000,15.500000,80.000000,0.000000,0.000000,0.000000,1771493549.570598,0.000000
60.000000,20308.571495,18516.721549,6106.898917,15100.056243,10538.176958,-18258.693011,652.939159,-20566.130646,21873.528883,25772.298965,-17091.574322,-11804.582096,1639.165180,-432.170979,7612.378313,4737.295775,-0.002000,-0.007500,1.010500,192.000000,0.000000,0.000000,0.000000,0.000000,0.000000,0.000000,0.000000,0.000000,0.000000,1771493549.570608,0.000000
62.000000,20320.082643,18527.696255,6117.136016,15105.554772,10546.804732,-18238.509385,660.136421,-20556.295878,21928.961209,25843.735140,-17017.902972,-11729.502586,1710.981335,-359.416051,7609.673752,4760.988624,-0.002000,-0.007500,1.010500,192.000000,0.000000,0.000000,0.000000,0.000000,0.000000,0.000000,0.000000,0.000000,0.000000,1771493549.570619,0.000000
64.000000,20272.004041,18477.069554,6069.951483,15100.883257,10514.037074,-18286.923264,612.370743,-20611.884667,21870.913729,25775.718781,-17091.440212,-11801.452851,1648.731726,-421.777418,7612.065388,4749.075144,-0.002000,-0.007500,1.010500,192.000000,0.000000,0.000000,0.000000,0.000000,0.000000,0.000000,0.000000,0.000000,0.000000,1771493549.570630,0.000000
66.000000,20334.454815,18542.135482,6132.066981,15102.693749,10564.641424,-18217.431690,674.352130,-20542.370742,21893.310177,25805.871285,-17057.085580,-11768.171104,1671.955189,-381.968961,7613.227679,4756.160647,-0.002000,-0.007500,1.010500,192.000000,0.000000,0.000000,0.000000,0.000000,0.000000,0.000000,0.000000,0.000000,0.000000,1771493549.570642,0.000000
68.000000,20266.863139,18474.812028,6070.867905,15102.693749,10514.260592,-18287.459706,614.471807,-20614.455118,21899.926293,25810.252227,-17047.608441,-11761.376174,1684.315703,-382.103071,7608.243240,4756.026537,0.000000,-0.006750,1.007250,192.000000,0.000000,8.000000,127.500000,104.000000,15.500000,48.000000,0.000000,0.000000,0.000000,1771493549.570652,0.000000
70.000000,20292.701756,18501.030624,6095.633637,15097.485792,10526.621106,-18261.844607,640.064554,-20587.029527,21857.793255,25758.642049,-17105.007721,-11817.233183,1635.387735,-426.605395,7609.249068,4738.458066,0.000000,-0.006750,1.007250,192.000000,0.000000,0.000000,0.000000,0.000000,0.000000,0.000000,0.000000,0.000000,0.000000,1771493549.570663,0.000000
72.000000,20310.381986,18520.454290,6108.709408,15108.326388,10536.858205,-18243.829101,653.654415,-20568.790504,21910.766889,25831.687550,-17035.449092,-11743.964165,1690.037750,-365.540429,7600.576592,4757.837028,0.000000,-0.006750,1.007250,192.000000,0.000000,0.000000,0.000000,0.000000,0.000000,0.000000,0.000000,0.000000,0.000000,1771493549.570674,0.000000
74.000000,20268.695983,18477.561292,6064.877637,15108.415795,10508.315028,-18290.901874,611.499025,-20616.064443,21865.236385,25774.757656,-17100.202096,-11805.900849,1640.930967,-419.922223,7606.656266,4747.264653,0.000000,-0.006750,1.007250,192.000000,0.000000,0.000000,0.000000,0.000000,0.000000,0.000000,0.000000,0.000000,0.000000,1771493549.570685,0.000000
76.000000,20334.946553,18544.460064,6131.105856,15107.879354,10562.138028,-18216.984655,675.201497,-20543.309515,21895.053613,25810.296930,-17060.036011,-11769.333395,1674.816212,-388.450967,7608.734978,4754.976005,0.000000,-0.006750,1.007250,192.000000,0.000000,0.000000,0.000000,0.000000,0.000000,0.000000,0.000000,0.000000,0.000000,1771493549.570695,0.000000
78.000000,20272.138151,18480.578778,6078.512201,15102.894914,10517.836871,-18281.022403,617.846920,-20607.526077,21907.190610,25824.937323,-17042.199319,-11755.363554,1689.277791,-374.659941,7614.077045,4755.177171,0.001000,-0.003375,1.006625,192.000000,0.000000,8.000000,0.000000,0.000000,15.500000,56.000000,0.000000,0.000000,0.000000,1771493549.570708,0.000000
80.000000,20302.804745,18510.150136,6105.893088,15103.587819,10538.713400,-18251.316935,647.351223,-20573.238501,21865.705772,25778.132770,-17093.742441,-11806.191421,1644.663709,-422.000935,7619.977906,4736.513464,0.001000,-0.003375,1.006625,192.000000,0.000000,0.000000,0.000000,0.000000,0.000000,0.000000,0.000000,0.000000,0.000000,1771493549.570718,0.000000
82.000000,20314.695873,18522.957685,6116.107835,15108.549906,10546.491807,-18243.851452,659.108240,-20561.123855,21918.679406,25842.818718,-17020.540478,-11735.649316,1713.216509,-355.996234,7614.457025,4755.825371,0.001000,-0.003375,1.006625,192.000000,0.000000,0.000000,0.000000,0.000000,0.000000,0.000000,0.000000,0.000000,0.000000,1771493549.570728,0.000000
84.000000,20258.123607,18471.392211,6067.448088,15101.464403,10507.957400,-18304.156459,612.996592,-20616.131498,21857.301516,25770.913156,-17094.748270,-11808.404244,1639.522808,-428.549996,7612.177147,4733.652441,0.001000,-0.003375,1.006625,192.000000,0.000000,0.000000,0.000000,0.000000,0.000000,0.000000,0.000000,0.000000,0.000000,1771493550.042452,0.000000
86.000000,20321.066120,18540.168529,6130.792931,15107.678188,10556.371278,-18231.647400,677.973113,-20544.047122,21877.619252,25804.083145,-17063.120551,-11773.893151,1670.167049,-394.485938,7609.070254,4743.017822,0.001000,-0.003375,1.006625,192.000000,0.000000,0.000000,0.000000,0.000000,0.000000,0.000000,0.000000,0.000000,0.000000,1771493550.042514,0.000000
88.000000,20258.794160,18476.913092,6076.567599,15107.678188,10514.059426,-18292.377090,622.540787,-20608.733071,21890.695022,25815.951921,-17048.211938,-11761.175008,1693.144642,-382.371292,7606.544507,4753.120810,0.001500,-0.004687,1.006312,192.000000,0.000000,8.000000,127.500000,104.000000,15.500000,56.000000,0.000000,0.000000,0.000000,1771493550.042552,0.000000
90.000000,20289.706622,18507.467926,6109.357608,15104.571295,10536.433522,-18259.341211,650.212246,-20576.792428,21858.374400,25769.773217,-17095.217657,-11811.779357,1638.159351,-429.019383,7617.563917,4743.218987,0.001500,-0.004687,1.006312,192.000000,0.000000,0.000000,0.000000,0.000000,0.000000,0.000000,0.000000,0.000000,0.000000,1771493550.042601,0.000000
92.000000,20305.106974,18521.840098,6116.577222,15107.767595,10539.339249,-18249.059409,658.169467,-20562.509663,21906.475354,25833.296875,-17024.787310,-11747.205168,1698.374951,-369.541391,7606.097472,4760.742755,0.001500,-0.004687,1.006312,192.000000,0.000000,0.000000,0.000000,0.000000,0.000000,0.000000,0.000000,0.000000,0.000000,1771493550.042643,0.000000
94.000000,20260.336430,18476.913092,6071.940788,15107.320560,10503.732920,-18296.310997,617.824568,-20610.588266,21857.435627,25778.557453,-17088.780354,-11807.264305,1641.355651,-423.409095,7609.226717,4745.074182,0.001500,-0.004687,1.006312,192.000000,0.000000,0.000000,0.000000,0.000000,0.000000,0.000000,0.000000,0.000000,0.000000,1771493550.042687,0.000000
96.000000,20322.608390,18541.286116,6126.076713,15106.918228,10548.414057,-18226.908830,673.882744,-20544.382399,21876.658127,25806.743003,-17061.779447,-11775.591883,1672.670445,-392.295467,7602.700007,4749.119848,0.001500,-0.004687,1.006312,192.000000,0.000000,0.000000,0.000000,0.000000,0.000000,0.000000,0.000000,0.000000,0.000000,1771493550.042709,0.000000
98.000000,20266.058477,18485.607920,6076.254675,15100.547981,10509.902002,-18289.896046,619.053914,-20607.369615,21894.539522,25825.205544,-17046.244984,-11758.090467,1689.680122,-374.190554,7602.498842,4753.277272,-0.000250,-0.007344,1.007156,192.000000,127.500000,120.000000,127.500000,88.000000,15.500000,64.000000,0.000000,0.000000,0.000000,1771493550.042720,0.000000
100.000000,20296.121573,18517.526211,6105.155481,15096.189391,10538.400476,-18252.121598,647.083002,-20574.780771,21855.915708,25774.780008,-17095.307063,-11809.566535,1643.367308,-423.364392,7616.513385,4741.967290,-0.000250,-0.007344,1.007156,192.000000,0.000000,0.000000,0.000000,0.000000,0.000000,0.000000,0.000000,0.000000,0.000000,1771493550.042730,0.000000
102.000000,20309.778489,18532.881860,6120.712295,15094.892990,10542.692011,-18243.270307,655.911941,-20559.626288,21910.342206,25847.020846,-17023.937943,-11736.990420,1708.299125,-354.833943,7612.087740,4759.580464,-0.000250,-0.007344,1.007156,192.000000,0.000000,0.000000,0.000000,0.000000,0.000000,0.000000,0.000000,0.000000,0.000000,1771493550.042740,0.000000
104.000000,20263.555081,18484.713851,6074.153611,15089.260350,10502.660036,-18297.786212,612.907185,-20611.571742,21858.866138,25783.407782,-17090.054404,-11805.409110,1649.849313,-418.804636,7616.401627,4743.442505,-0.000250,-0.007344,1.007156,192.000000,0.000000,0.000000,0.000000,0.000000,0.000000,0.000000,0.000000,0.000000,0.000000,1771493550.042750,0.000000
106.000000,20326.296428,18551.009125,6130.681173,15091.316711,10542.982583,-18234.530775,671.468755,-20543.510681,21882.737801,25817.069509,-17057.845540,-11771.680328,1674.726805,-381.991313,7613.138272,4750.729174,-0.000250,-0.007344,1.007156,192.000000,0.000000,0.000000,0.000000,0.000000,0.000000,0.000000,0.000000,0.000000,0.000000,1771493550.042761,0.000000
108.000000,20258.481235,18481.919883,6067.269274,15089.953254,10498.212039,-18302.010691,613.756551,-20614.164545,21893.623101,25831.151108,-17047.496682,-11758.649261,1682.058177,-375.330493,7601.828289,4751.578540,-0.000250,-0.007344,1.007156,192.000000,0.000000,0.000000,0.000000,0.000000,0.000000,0.000000,0.000000,0.000000,0.000000,1771493550.042771,0.000000
110.000000,20282.419954,18506.082118,6090.157460,15093.931865,10517.032208,-18267.432543,640.824514,-20587.074231,21845.276278,25773.260090,-17107.108785,-11816.070892,1635.901825,-431.656889,7603.437615,4741.162627,-0.002000,-0.010000,1.014000,192.000000,127.500000,120.000000,127.500000,88.000000,15.500000,88.000000,0.000000,0.000000,0.000000,1771493550.042792,0.000000
112.000000,20298.155582,18522.130671,6107.792986,15093.171906,10534.935955,-18241.348057,654.235560,-20572.187969,21900.507438,25835.979084,-17035.449092,-11747.451037,1690.596544,-363.819344,7601.895344,4763.760241,-0.002000,-0.010000,1.014000,192.000000,0.000000,0.000000,0.000000,0.000000,0.000000,0.000000,0.000000,0.000000,0.000000,1771493550.042802,0.000000
114.000000,20252.513320,18477.315423,6066.062279,15088.589798,10503.777624,-18297.160363,611.096693,-20622.613504,21853.904051,25777.126941,-17103.733671,-11815.847375,1636.304156,-420.011630,7608.958496,4749.544531,-0.002000,-0.010000,1.014000,192.000000,0.000000,0.000000,0.000000,0.000000,0.000000,0.000000,0.000000,0.000000,0.000000,1771493550.042812,0.000000
116.000000,20319.277980,18545.175319,6123.841539,15093.797755,10551.677412,-18222.617295,669.702967,-20554.552442,21879.094467,25808.106459,-17069.334336,-11784.309063,1674.816212,-387.579249,7607.349170,4755.244226,-0.002000,-0.010000,1.014000,192.000000,0.000000,0.000000,0.000000,0.000000,0.000000,0.000000,0.000000,0.000000,0.000000,1771493550.042823,0.000000
118.000000,20257.296593,18481.539903,6074.131259,15092.344891,10510.818423,-18288.979624,614.136531,-20619.618370,21893.488990,25830.815832,-17053.777522,-11765.444191,1683.175764,-369.809612,7603.907001,4761.815639,-0.002000,-0.010000,1.014000,192.000000,0.000000,0.000000,0.000000,0.000000,0.000000,0.000000,0.000000,0.000000,0.000000,1771493550.042833,0.000000
120.000000,20287.203227,18511.535944,6099.388730,15095.630598,10531.382028,-18259.989412,642.724412,-20586.269568,21852.004153,25778.758619,-17106.013549,-11817.747273,1635.700659,-420.548072,7611.551298,4745.811790,0.002000,-0.004000,1.010000,192.000000,0.000000,8.000000,127.500000,112.000000,15.500000,72.000000,0.000000,0.000000,0.000000,1771493550.042843,0.000000
122.000000,20306.470431,18529.886726,6115.124359,15103.543115,10548.972851,-18237.548260,656.962473,-20568.879911,21907.659996,25844.830375,-17033.169214,-11745.461732,1703.202927,-351.011795,7604.979885,4765.280159,0.002000,-0.004000,1.010000,192.000000,0.000000,0.000000,0.000000,0.000000,0.000000,0.000000,0.000000,0.000000,0.000000,1771493550.042854,0.000000
124.000000,20251.127511,18477.114257,6064.318843,15101.665569,10510.550202,-18294.701671,609.934403,-20625.742748,21854.798121,25784.257148,-17101.163221,-11811.041750,1644.127267,-412.412037,7612.624182,4753.813714,0.002000,-0.004000,1.010000,192.000000,0.000000,0.000000,0.000000,0.000000,0.000000,0.000000,0.000000,0.000000,0.000000,1771493550.042864,0.000000
126.000000,20318.115690,18547.678715,6124.825016,15110.695673,10560.126371,-18220.896211,670.664092,-20553.613669,21873.461827,25807.838238,-17072.642395,-11781.090412,1669.764718,-382.505403,7612.355961,4761.547418,0.002000,-0.004000,1.010000,192.000000,0.000000,0.000000,0.000000,0.000000,0.000000,0.000000,0.000000,0.000000,0.000000,1771493550.042874,0.000000
128.000000,20258.548291,18489.631234,6073.795983,15109.376920,10520.183804,-18281.201217,616.438760,-20617.494955,21889.577435,25827.507773,-17053.039915,-11761.577339,1683.868669,-356.219751,7607.818557,4770.465764,0.002000,-0.004000,1.010000,192.000000,0.000000,0.000000,0.000000,0.000000,0.000000,0.000000,0.000000,0.000000,0.000000,1771493550.042884,0.000000
130.000000,20286.353861,18520.767214,6096.214783,15106.717063,10533.840720,-18246.734827,641.964453,-20587.923597,21848.226708,25777.976308,-17108.852221,-11816.026189,1635.320680,-405.438293,7613.048865,4761.033328,0.004000,-0.006000,1.006000,192.000000,0.000000,16.000000,127.500000,104.000000,15.500000,56.000000,0.000000,0.000000,0.000000,1771493550.042895,0.000000
132.000000,20307.275093,18538.358037,6115.258469,15106.985284,10544.815426,-18235.648362,655.241389,-20570.377477,21908.084680,25847.780806,-17033.191566,-11741.706639,1703.649962,-344.976824,7605.918658,4779.160592,0.004000,-0.006000,1.006000,192.000000,0.000000,0.000000,0.000000,0.000000,0.000000,0.000000,0.000000,0.000000,0.000000,1771493550.042905,0.000000
134.000000,20252.982706,18485.786734,6070.197352,15097.105813,10516.138138,-18288.867866,608.615650,-20625.921562,21856.563909,25785.285328,-17100.202096,-11807.219602,1641.333299,-404.655982,7612.959458,4762.195618,0.004000,-0.006000,1.006000,192.000000,0.000000,0.000000,0.000000,0.000000,0.000000,0.000000,0.000000,0.000000,0.000000,1771493550.042915,0.000000
136.000000,20320.909658,18555.837101,6133.475141,15102.559638,10570.877560,-18220.762100,674.016854,-20552.026695,21879.429743,25805.111325,-17070.653089,-11777.290616,1671.239933,-377.833888,7616.356923,4770.465764,0.004000,-0.006000,1.006000,192.000000,0.000000,0.000000,0.000000,0.000000,0.000000,0.000000,0.000000,0.000000,0.000000,1771493550.042926,0.000000
138.000000,20258.861215,18490.368842,6076.433489,15096.547019,10527.671638,-18288.286720,616.841092,-20619.819536,21897.758174,25817.985930,-17050.335354,-11758.425743,1690.842413,-363.439365,7615.820481,4776.478383,0.004000,-0.006000,1.006000,192.000000,0.000000,0.000000,0.000000,0.000000,0.000000,0.000000,0.000000,0.000000,0.000000,1771493550.042936,0.000000
140.000000,20283.246968,18513.391139,6097.354722,15093.663644,10548.838740,-18255.586118,641.092734,-20592.617463,21858.352048,25762.777121,-17109.500421,-11817.948439,1637.287633,-415.518929,7620.693162,4758.418174,0.002000,-0.006000,1.008000,192.000000,0.000000,8.000000,127.500000,104.000000,15.500000,64.000000,0.000000,0.000000,0.000000,1771493550.042946,0.000000
142.000000,20301.307178,18531.272534,6117.247774,15101.643217,10565.244921,-18233.279077,657.968302,-20573.707887,21913.829078,25831.844012,-17036.834900,-11746.132284,1705.259288,-348.150772,7618.547394,4779.361758,0.002000,-0.006000,1.008000,192.000000,0.000000,0.000000,0.000000,0.000000,0.000000,0.000000,0.000000,0.000000,0.000000,1771493550.042958,0.000000
144.000000,20248.154729,18477.963624,6067.828067,15093.171906,10529.616240,-18282.944653,608.682705,-20630.078987,21866.286917,25772.723648,-17103.018415,-11811.488785,1652.755040,-408.299316,7625.677601,4764.274331,0.002000,-0.006000,1.008000,192.000000,0.000000,0.000000,0.000000,0.000000,0.000000,0.000000,0.000000,0.000000,0.000000,1771493550.042969,0.000000
146.000000,20307.900942,18540.839081,6131.977574,15094.937693,10573.045680,-18217.521097,665.187915,-20564.141341,21888.504551,25792.639052,-17078.163275,-11788.421784,1678.526602,-380.158470,7621.564880,4769.191714,0.002000,-0.006000,1.008000,192.000000,0.000000,0.000000,0.000000,0.000000,0.000000,0.000000,0.000000,0.000000,0.000000,1771493550.042979,0.000000
148.000000,20250.546366,18485.294996,6080.792079,15099.184525,10536.634688,-18280.307148,615.745856,-20622.568801,21905.290712,25808.374680,-17056.325621,-11767.791124,1688.271962,-365.518077,7619.687333,4776.388976,0.002000,-0.006000,1.008000,192.000000,0.000000,0.000000,0.000000,0.000000,0.000000,0.000000,0.000000,0.000000,0.000000,1771493550.042989,0.000000
150.000000,20283.604596,18518.599095,6104.507280,15102.425528,10552.213854,-18246.153682,645.607787,-20588.772963,21864.856406,25763.358267,-17106.594694,-11816.428520,1654.409069,-415.317764,7622.481301,4761.793287,-0.002000,-0.008000,1.008000,192.000000,127.500000,120.000000,127.500000,96.000000,15.500000,64.000000,0.000000,0.000000,0.000000,1771493550.042999,0.000000
152.000000,20296.345090,18531.049017,6119.795873,15100.637388,10562.383898,-18228.115824,658.929427,-20574.020812,21917.338302,25834.280352,-17036.410217,-11745.059400,1706.935669,-344.976824,7617.899194,4782.200430,-0.002000,-0.008000,1.008000,192.000000,0.000000,0.000000,0.000000,0.000000,0.000000,0.000000,0.000000,0.000000,0.000000,1771493550.043009,0.000000
154.000000,20242.455035,18477.404830,6068.677434,15089.908551,10524.095359,-18288.912569,610.694362,-20630.570725,21868.946775,25769.683810,-17101.587904,-11813.053407,1646.965938,-406.779397,7619.486167,4765.749546,-0.002000,-0.008000,1.008000,192.000000,0.000000,0.000000,0.000000,0.000000,0.000000,0.000000,0.000000,0.000000,0.000000,1771493550.043020,0.000000
156.000000,20312.281884,18547.678715,6128.580109,15095.563542,10574.163267,-18213.900115,671.021720,-20558.151073,21889.644490,25799.143410,-17074.877569,-11782.610331,1675.039729,-373.452946,7617.496862,4772.946807,-0.002000,-0.008000,1.008000,192.000000,0.000000,0.000000,0.000000,0.000000,0.000000,0.000000,0.000000,0.000000,0.000000,1771493550.043030,0.000000
158.000000,20250.725180,18485.183237,6078.914533,15090.847324,10529.571537,-18279.211912,617.265775,-20621.518269,21906.229485,25820.779898,-17054.805703,-11760.772677,1697.212660,-360.734804,7616.938069,4776.523087,-0.002000,-0.008000,1.008000,192.000000,0.000000,0.000000,0.000000,0.000000,0.000000,0.000000,0.000000,0.000000,0.000000,1771493550.043041,0.000000
160.000000,20275.759134,18513.480546,6101.065111,15087.449859,10548.436409,-18253.909737,642.277377,-20593.936216,21857.994420,25763.067694,-17110.640360,-11817.791977,1643.702584,-415.831854,7628.963307,4760.027499,-0.002000,-0.010000,1.012000,192.000000,127.500000,120.000000,127.500000,88.000000,15.500000,80.000000,0.000000,0.000000,0.000000,1771493550.043051,0.000000
162.000000,20295.898056,18534.625296,6121.360495,15092.702519,10567.882427,-18234.150795,659.778793,-20571.472713,21915.170183,25827.954808,-17039.271240,-11747.182816,1712.054218,-348.910731,7621.006086,4774.042043,-0.002000,-0.010000,1.012000,192.000000,0.000000,0.000000,0.000000,0.000000,0.000000,0.000000,0.000000,0.000000,0.000000,1771493550.043061,0.000000
164.000000,20243.662029,18481.182275,6071.046718,15085.505257,10530.756179,-18289.963101,610.493196,-20626.100376,21870.533749,25772.857758,-17099.419784,-11805.319703,1654.431421,-405.371237,7625.297621,4762.307377,-0.002000,-0.010000,1.012000,192.000000,0.000000,0.000000,0.000000,0.000000,0.000000,0.000000,0.000000,0.000000,0.000000,1771493550.043072,0.000000
166.000000,20308.124460,18548.438674,6133.944527,15091.651987,10579.617093,-18223.891345,670.865258,-20556.787617,21889.040993,25802.138543,-17072.485932,-11778.944645,1682.035825,-383.690045,7620.290830,4766.487153,-0.002000,-0.010000,1.012000,192.000000,0.000000,0.000000,0.000000,0.000000,0.000000,0.000000,0.000000,0.000000,0.000000,1771493550.043082,0.000000
168.000000,20250.345200,18491.151153,6075.226495,15086.712252,10538.825159,-18284.866903,614.158882,-20622.702911,21903.815496,25817.851820,-17056.102104,-11763.410182,1696.229183,-362.411185,7615.731074,4771.270427,-0.002000,-0.010000,1.012000,192.000000,0.000000,0.000000,0.000000,0.000000,0.000000,0.000000,0.000000,0.000000,0.000000,1771493550.043092,0.000000
170.000000,20283.425782,18523.494127,6098.606419,15089.483868,10554.203159,-18248.813540,641.919749,-20590.292882,21863.649412,25774.489435,-17110.193325,-11813.612200,1644.909578,-410.378028,7625.074103,4760.139258,0.002000,-0.004000,1.010000,192.000000,0.000000,8.000000,127.500000,112.000000,15.500000,72.000000,0.000000,0.000000,0.000000,1771493550.043103,0.000000
172.000000,20299.921370,18539.274459,6112.084521,15094.647121,10561.869807,-18231.535641,656.895418,-20572.880873,21921.205154,25841.209393,-17036.678438,-11741.058438,1719.854977,-341.624062,7620.089664,4782.848630,0.002000,-0.004000,1.010000,192.000000,0.000000,0.000000,0.000000,0.000000,0.000000,0.000000,0.000000,0.000000,0.000000,1771493550.043113,0.000000
174.000000,20248.959392,18482.433973,6066.688128,15093.954217,10528.364543,-18283.771668,611.141397,-20627.910868,21867.046877,25774.131808,-17108.762814,-11808.963038,1648.575264,-397.056389,7620.514348,4763.290854,0.002000,-0.004000,1.010000,192.000000,0.000000,0.000000,0.000000,0.000000,0.000000,0.000000,0.000000,0.000000,0.000000,1771493550.043125,0.000000
176.000000,20322.094300,18555.680639,6130.703524,15100.480926,10576.666662,-18213.587190,672.608694,-20553.099579,21898.875761,25814.342596,-17070.049592,-11770.898017,1679.063043,-361.718281,7627.108112,4773.282084,0.002000,-0.004000,1.010000,192.000000,0.000000,0.000000,0.000000,0.000000,0.000000,0.000000,0.000000,0.000000,0.000000,1771493550.043135,0.000000
178.000000,20262.124570,18491.329967,6076.545248,15096.971702,10533.997182,-18282.229398,616.863443,-20616.377368,21914.544334,25831.173459,-17049.374229,-11754.111857,1697.704398,-357.963187,7614.077045,4773.170325,0.002000,-0.004000,1.010000,192.000000,0.000000,0.000000,0.000000,0.000000,0.000000,0.000000,0.000000,0.000000,0.000000,1771493550.043145,0.000000
180.000000,20292.411183,18518.822613,6096.885335,15096.301150,10551.163322,-18257.798941,638.790505,-20589.063536,21872.277185,25780.144427,-17105.410052,-11811.958171,1641.512113,-410.489787,7618.279173,4753.344328,0.003000,-0.003000,1.012000,192.000000,0.000000,16.000000,127.500000,120.000000,15.500000,88.000000,0.000000,0.000000,0.000000,1771493550.043161,0.000000
182.000000,20316.528716,18547.119921,6119.170024,15101.419699,10565.915473,-18231.490938,662.148078,-20563.671954,21934.973828,25848.294896,-17027.849499,-11737.728028,1709.662582,-334.404449,7612.735941,4773.773822,0.003000,-0.003000,1.012000,192.000000,0.000000,0.000000,0.000000,0.000000,0.000000,0.000000,0.000000,0.000000,0.000000,1771493550.043171,0.000000
184.000000,20261.521073,18489.295958,6067.559846,15092.657816,10523.357752,-18290.857171,611.521377,-20621.361807,21886.403487,25785.173569,-17093.027186,-11798.927104,1658.164162,-402.085531,7615.887537,4757.926435,0.003000,-0.003000,1.012000,192.000000,0.000000,0.000000,0.000000,0.000000,0.000000,0.000000,0.000000,0.000000,0.000000,1771493550.043181,0.000000
186.000000,20322.787204,18553.780741,6125.383809,15092.009615,10570.966967,-18224.427786,669.457098,-20551.825530,21897.177028,25801.803267,-17070.362517,-11778.162334,1662.165125,-384.785281,7610.120786,4756.294758,0.003000,-0.003000,1.012000,192.000000,0.000000,0.000000,0.000000,0.000000,0.000000,0.000000,0.000000,0.000000,0.000000,1771493550.043191,0.000000
