Sample_index,EXG Channel 0,EXG Channel 1,EXG Channel 2,EXG Channel 3,EXG Channel 4,EXG Channel 5,EXG Channel 6,EXG Channel 7,EXG Channel 8,EXG Channel 9,EXG Channel 10,EXG Channel 11,EXG Channel 12,EXG Channel 13,EXG Channel 14,EXG Channel 15,Accel Channel 0,Accel Channel 1,Accel Channel 2,Not Used,Digital Channel 0 (D11),Digital Channel 1 (D12),Digital Channel 2 (D13),Digital Channel 3 (D17),Not Used,Digital Channel 4 (D18),Analog Channel 0,Analog Channel 1,Analog Channel 2,Timestamp,Marker Channel
90.000000,19233.832566,16470.665213,-3717.162158,-17313.080110,-16780.527446,-2116.531386,-18982.621310,-9214.953687,10870.390936,-8400.992561,-1239.717154,7250.838846,19966.321584,21915.125479,4720.129635,1758.545847,0.008000,-0.014000,1.006000,192.000000,0.000000,0.000000,0.000000,0.000000,0.000000,0.000000,0.000000,0.000000,0.000000,1770802971.452807,101.000000
92.000000,19251.691610,16487.518428,-3707.394446,-17290.683662,-16760.477932,-2093.576144,-18961.364801,-9201.542640,10879.801021,-8392.722415,-1229.860035,7266.350957,19974.547026,21921.071043,4720.062580,1757.048280,0.008000,-0.014000,1.006000,192.000000,0.000000,0.000000,0.000000,0.000000,0.000000,0.000000,0.000000,0.000000,0.000000,1770802971.452862,0.000000
94.000000,19231.932668,16466.485437,-3722.794798,-17312.208392,-16781.153295,-2106.808377,-18983.448325,-9218.887594,10872.357890,-8389.637874,-1234.688012,7258.371384,19975.284633,21923.485032,4714.474644,1757.785887,0.012000,-0.006000,1.008000,192.000000,0.000000,48.000000,127.500000,104.000000,15.500000,64.000000,0.000000,0.000000,0.000000,1770802971.452902,0.000000
96.000000,19242.236822,16478.577730,-3711.373056,-17299.132621,-16764.814170,-2088.234077,-18970.260795,-9209.633971,10880.449221,-8397.192764,-1231.536416,7256.449134,19971.596595,21923.127404,4721.314278,1768.335911,0.012000,-0.006000,1.008000,192.000000,0.000000,0.000000,0.000000,0.000000,0.000000,0.000000,0.000000,0.000000,0.000000,1770802971.452939,0.000000
98.000000,19237.006514,16476.051983,-3712.535347,-17299.423194,-16764.881225,-2096.884203,-18970.596072,-9213.679637,10880.292759,-8384.765194,-1226.484922,7267.736765,19977.922139,21930.458776,4717.648592,1766.033681,0.012000,-0.006000,1.008000,192.000000,0.000000,0.000000,0.000000,0.000000,0.000000,0.000000,0.000000,0.000000,0.000000,1770802971.452977,0.000000
100.000000,19223.461357,16463.311489,-3716.133978,-17314.108290,-16778.918121,-2112.910403,-18984.409450,-9226.218966,10872.112021,-8405.395854,-1245.282739,7244.334488,19975.351688,21917.539468,4723.482397,1770.124050,0.012000,-0.006000,1.008000,192.000000,0.000000,0.000000,0.000000,0.000000,0.000000,0.000000,0.000000,0.000000,0.000000,1770802971.453018,0.000000
102.000000,19243.354409,16484.567998,-3703.907574,-17294.818735,-16758.779199,-2098.739397,-18963.398810,-9207.912887,10885.277198,-8394.667017,-1229.345945,7261.500628,19978.704450,21925.608447,4724.689391,1769.207629,0.012000,-0.006000,1.008000,192.000000,0.000000,0.000000,0.000000,0.000000,0.000000,0.000000,0.000000,0.000000,0.000000,1770802971.453051,0.000000
104.000000,19226.434139,16463.378544,-3714.949335,-17314.041235,-16774.470124,-2122.588709,-18981.660185,-9221.167472,10875.420079,-8391.828345,-1233.704535,7257.700832,19975.217578,21925.228468,4723.705914,1763.150306,0.012000,-0.009000,1.008000,192.000000,0.000000,48.000000,127.500000,80.000000,15.500000,64.000000,0.000000,0.000000,0.000000,1770802971.453062,0.000000
106.000000,19239.554613,16478.085992,-3705.047513,-17300.518429,-16764.322432,-2113.200976,-18967.735048,-9207.711721,10883.690224,-8402.557183,-1230.910567,7256.113858,19973.563549,21918.992331,4730.947880,1767.263027,0.012000,-0.009000,1.008000,192.000000,0.000000,0.000000,0.000000,0.000000,0.000000,0.000000,0.000000,0.000000,0.000000,1770802971.453074,0.000000
108.000000,19244.159072,16482.086954,-3706.701542,-17297.545647,-16760.567339,-2092.011522,-18966.751572,-9207.041169,10888.428794,-8380.227790,-1218.930032,7274.330529,19984.046517,21936.292581,4727.505711,1760.244579,0.012000,-0.009000,1.008000,192.000000,0.000000,0.000000,0.000000,0.000000,0.000000,0.000000,0.000000,0.000000,0.000000,1770802971.453084,0.000000
110.000000,19233.989028,16470.821675,-3711.551870,-17304.228819,-16775.274786,-2097.755921,-18977.815685,-9212.427939,10883.153782,-8394.868183,-1230.664698,7253.789276,19975.530502,21942.752235,4722.029534,1760.781021,0.012000,-0.009000,1.008000,192.000000,0.000000,0.000000,0.000000,0.000000,0.000000,0.000000,0.000000,0.000000,0.000000,1770802971.453095,0.000000
112.000000,19248.092979,16488.121925,-3703.482891,-17288.090859,-16755.292327,-2089.888107,-18959.286089,-9199.821556,10892.295646,-8383.893476,-1219.689991,7271.402451,19975.843427,21936.896078,4721.984830,1764.781983,0.012000,-0.009000,1.008000,192.000000,0.000000,0.000000,0.000000,0.000000,0.000000,0.000000,0.000000,0.000000,0.000000,1770802971.453106,0.000000
114.000000,19227.730540,16465.345498,-3714.658763,-17311.493136,-16780.326281,-2106.763674,-18981.436668,-9216.674771,10884.852515,-8383.468793,-1230.217663,7263.422878,19973.854121,21935.130290,4715.748693,1760.758669,0.011000,-0.012500,1.009000,192.000000,0.000000,40.000000,127.500000,64.000000,15.500000,72.000000,0.000000,0.000000,0.000000,1770802971.453117,0.000000
116.000000,19236.470072,16472.810980,-3709.048475,-17305.994607,-16770.759734,-2091.966819,-18972.339508,-9211.600925,10887.579428,-8402.981866,-1235.202102,7252.157599,19959.437246,21925.362578,4723.236528,1762.613864,0.011000,-0.012500,1.009000,192.000000,0.000000,0.000000,0.000000,0.000000,0.000000,0.000000,0.000000,0.000000,0.000000,1770802971.453128,0.000000
118.000000,19234.369008,16469.033536,-3714.256431,-17306.441642,-16763.003679,-2107.255412,-18974.373516,-9216.808881,10890.462803,-8385.771023,-1226.842550,7267.110916,19967.707392,21936.538450,4721.940127,1760.199876,0.011000,-0.012500,1.009000,192.000000,0.000000,0.000000,0.000000,0.000000,0.000000,0.000000,0.000000,0.000000,0.000000,1770802971.453138,0.000000
120.000000,19220.510926,16453.879053,-3719.263222,-17319.428005,-16772.100839,-2113.133921,-18988.186894,-9230.823425,10873.609587,-8413.040151,-1250.691861,7235.416142,19949.110740,21916.600694,4722.878900,1762.144478,0.011000,-0.012500,1.009000,192.000000,0.000000,0.000000,0.000000,0.000000,0.000000,0.000000,0.000000,0.000000,0.000000,1770802971.453149,0.000000
122.000000,19234.905450,16472.810980,-3710.367228,-17298.998511,-16751.671344,-2094.872546,-18968.696173,-9217.702951,10887.221800,-8399.070310,-1235.000936,7254.839808,19961.739476,21930.056444,4731.439618,1774.437937,0.011000,-0.012500,1.009000,192.000000,0.000000,0.000000,0.000000,0.000000,0.000000,0.000000,0.000000,0.000000,0.000000,1770802971.453159,0.000000
124.000000,19216.264095,16454.147274,-3726.840464,-17317.595162,-16776.168856,-2109.043552,-18988.835095,-9232.589213,10869.586273,-8398.220944,-1248.434335,7244.066267,19953.536386,21928.558878,4717.246260,1768.604132,0.010500,-0.012250,1.008500,192.000000,0.000000,40.000000,127.500000,80.000000,15.500000,64.000000,0.000000,0.000000,0.000000,1770802971.453187,0.000000
126.000000,19235.844223,16473.816809,-3712.535347,-17300.339615,-16772.793743,-2090.536307,-18971.624252,-9212.137367,10875.509486,-8405.999351,-1243.494599,7245.496779,19950.720066,21922.859183,4722.051885,1772.180411,0.010500,-0.012250,1.008500,192.000000,0.000000,0.000000,0.000000,0.000000,0.000000,0.000000,0.000000,0.000000,0.000000,1770802971.453198,0.000000
128.000000,19243.466168,16482.377527,-3708.847309,-17295.109307,-16765.730592,-2089.999865,-18965.835150,-9205.297733,10886.126564,-8376.204476,-1224.160340,7273.436460,19962.566490,21935.979657,4719.034400,1771.934542,0.010500,-0.012250,1.008500,192.000000,0.000000,0.000000,0.000000,0.000000,0.000000,0.000000,0.000000,0.000000,0.000000,1770802971.453209,0.000000
130.000000,19233.586697,16471.514579,-3712.401237,-17310.800232,-16775.364193,-2107.255412,-18978.597996,-9211.422111,10883.511410,-8398.578572,-1239.247768,7249.587148,19953.491682,21924.937895,4717.939164,1765.452536,0.010500,-0.012250,1.008500,192.000000,0.000000,0.000000,0.000000,0.000000,0.000000,0.000000,0.000000,0.000000,0.000000,1770802971.453219,0.000000
132.000000,19254.150302,16493.843972,-3699.325466,-17289.186095,-16759.360344,-2094.671380,-18955.128664,-9194.658303,10897.123623,-8387.112127,-1222.618070,7272.408279,19964.444037,21936.024360,4722.431865,1767.575952,0.010500,-0.012250,1.008500,192.000000,0.000000,0.000000,0.000000,0.000000,0.000000,0.000000,0.000000,0.000000,0.000000,1770802971.453230,0.000000
134.000000,19226.434139,16461.568053,-3716.983344,-17316.768148,-16779.588673,-2109.781159,-18982.375441,-9219.558146,10885.143088,-8390.509592,-1234.173922,7261.455925,19962.007697,21935.040883,4721.716609,1761.429222,0.009250,-0.014125,1.010250,192.000000,0.000000,32.000000,127.500000,64.000000,15.500000,80.000000,0.000000,0.000000,0.000000,1770802971.453241,0.000000
136.000000,19241.365104,16477.214274,-3708.579088,-17302.217162,-16763.629528,-2095.006656,-18969.724354,-9208.561088,10887.132393,-8405.507613,-1234.643308,7254.191608,19955.838615,21910.364558,4727.215138,1760.713966,0.009250,-0.014125,1.010250,192.000000,0.000000,0.000000,0.000000,0.000000,0.000000,0.000000,0.000000,0.000000,0.000000,1770802971.453252,0.000000
138.000000,19238.280563,16476.499018,-3712.289478,-17301.881886,-16760.321469,-2093.531441,-18969.679650,-9211.913849,10891.066300,-8384.005235,-1225.769666,7270.843657,19967.841502,21928.603581,4721.582499,1757.048280,0.009250,-0.014125,1.010250,192.000000,0.000000,0.000000,0.000000,0.000000,0.000000,0.000000,0.000000,0.000000,0.000000,1770802971.453262,0.000000
140.000000,19233.094958,16465.300794,-3715.351667,-17315.784671,-16775.721821,-2102.874470,-18983.247159,-9216.473605,10884.427832,-8405.932296,-1242.041736,7245.161503,19947.613173,21923.395625,4722.208348,1758.434088,0.009250,-0.014125,1.010250,192.000000,0.000000,0.000000,0.000000,0.000000,0.000000,0.000000,0.000000,0.000000,0.000000,1770802971.453272,0.000000
142.000000,19247.400075,16483.159838,-3709.115530,-17300.943112,-16764.233025,-2101.756883,-18966.818627,-9204.180146,10897.749471,-8392.677712,-1225.300279,7264.585169,19955.257470,21926.435462,4723.616507,1759.395213,0.009250,-0.014125,1.010250,192.000000,0.000000,0.000000,0.000000,0.000000,0.000000,0.000000,0.000000,0.000000,0.000000,1770802971.453283,0.000000
144.000000,19228.758720,16463.780876,-3719.263222,-17317.818680,-16783.164952,-2122.119322,-18987.069307,-9222.150948,10884.025500,-8395.024645,-1235.380916,7254.862160,19951.792950,21916.645398,4715.681638,1759.372861,0.008625,-0.015062,1.007125,192.000000,0.000000,32.000000,127.500000,64.000000,15.500000,48.000000,0.000000,0.000000,0.000000,1770802971.453293,0.000000
146.000000,19236.581831,16469.592329,-3708.892013,-17307.179249,-16772.659632,-2122.946337,-18975.289938,-9214.059617,10890.663968,-8405.038226,-1236.610262,7252.604634,19946.920269,21916.131308,4720.867243,1762.747975,0.008625,-0.015062,1.007125,192.000000,0.000000,0.000000,0.000000,0.000000,0.000000,0.000000,0.000000,0.000000,0.000000,1770802971.453304,0.000000
148.000000,19237.006514,16469.301757,-3710.546042,-17307.961560,-16768.703374,-2133.719877,-18974.239406,-9213.992562,10891.870963,-8389.101432,-1227.401343,7269.010814,19957.827921,21919.886401,4719.816711,1756.958873,0.008625,-0.015062,1.007125,192.000000,0.000000,0.000000,0.000000,0.000000,0.000000,0.000000,0.000000,0.000000,0.000000,1770802971.453314,0.000000
150.000000,19229.317514,16459.936376,-3712.222423,-17315.896430,-16779.432211,-2115.346744,-18983.716546,-9217.010047,10881.455050,-8408.614505,-1241.125314,7244.960337,19950.653011,21909.425784,4718.855586,1759.015233,0.008625,-0.015062,1.007125,192.000000,0.000000,0.000000,0.000000,0.000000,0.000000,0.000000,0.000000,0.000000,0.000000,1770802971.453325,0.000000
152.000000,19246.662467,16480.187056,-3702.544117,-17297.255075,-16759.941490,-2100.885165,-18963.667031,-9199.352169,10893.748509,-8396.097528,-1222.953346,7267.647358,19968.892034,21923.373273,4721.671906,1761.384518,0.008625,-0.015062,1.007125,192.000000,0.000000,0.000000,0.000000,0.000000,0.000000,0.000000,0.000000,0.000000,0.000000,1770802971.453335,0.000000
154.000000,19230.479804,16460.629280,-3714.457597,-17317.572810,-16776.012394,-2124.332145,-18983.314214,-9213.299657,10889.613436,-8389.995502,-1225.121465,7264.428707,19967.483874,21924.155584,4718.587365,1752.957911,0.006313,-0.017531,1.004563,192.000000,0.000000,16.000000,127.500000,48.000000,15.500000,40.000000,0.000000,0.000000,0.000000,1770802971.453346,0.000000
156.000000,19240.560441,16472.498056,-3707.997943,-17301.188982,-16770.335051,-2069.100984,-18973.322984,-9205.387140,10894.933152,-8395.941066,-1226.999012,7258.639605,19958.945508,21925.094357,4720.576670,1762.345643,0.006313,-0.017531,1.004563,192.000000,0.000000,0.000000,0.000000,0.000000,0.000000,0.000000,0.000000,0.000000,0.000000,1770802971.453357,0.000000
158.000000,19238.146453,16467.737134,-3709.182585,-17297.344482,-16767.786952,-2067.938694,-18969.165560,-9206.907059,10897.883582,-8377.277360,-1218.840625,7277.929160,19973.451790,21946.999067,4717.872109,1761.786850,0.006313,-0.017531,1.004563,192.000000,0.000000,0.000000,0.000000,0.000000,0.000000,0.000000,0.000000,0.000000,0.000000,1770802971.453367,0.000000
160.000000,19220.533278,16453.409666,-3713.697638,-17311.068453,-16785.355423,-2077.505240,-18983.202455,-9219.044056,10882.684396,-8403.160680,-1240.968852,7249.765962,19957.157368,21930.794052,4717.603888,1760.110469,0.006313,-0.017531,1.004563,192.000000,0.000000,0.000000,0.000000,0.000000,0.000000,0.000000,0.000000,0.000000,0.000000,1770802971.453377,0.000000
162.000000,19233.541993,16466.932472,-3698.565507,-17296.361005,-16760.857911,-2088.099967,-18962.549444,-9205.074216,10891.870963,-8394.085871,-1225.724962,7267.490896,19969.607290,21933.789186,4725.114074,1757.048280,0.006313,-0.017531,1.004563,192.000000,0.000000,0.000000,0.000000,0.000000,0.000000,0.000000,0.000000,0.000000,0.000000,1770802971.453388,0.000000
164.000000,19210.810269,16441.518538,-3716.625716,-17323.987761,-16785.601292,-2115.436150,-18989.393889,-9225.727227,10877.722308,-8405.865241,-1239.583044,7251.822323,19968.355592,21924.960247,4718.788531,1749.158114,0.007156,-0.015766,1.006281,192.000000,0.000000,32.000000,127.500000,72.000000,15.500000,64.000000,0.000000,0.000000,0.000000,1770802971.453398,0.000000
166.000000,19228.468147,16460.808094,-3703.214670,-17307.603932,-16770.849141,-2107.590688,-18974.194702,-9208.426977,10885.478364,-8417.465796,-1236.006765,7250.324756,19966.589804,21911.437441,4722.588327,1755.774230,0.007156,-0.015766,1.006281,192.000000,0.000000,0.000000,0.000000,0.000000,0.000000,0.000000,0.000000,0.000000,0.000000,1770802971.453408,0.000000
168.000000,19232.044426,16464.630242,-3702.141786,-17303.446508,-16766.490551,-2109.691752,-18969.500836,-9203.934277,10892.697977,-8395.181107,-1221.053448,7270.910713,19976.379869,21940.874689,4721.940127,1755.818934,0.007156,-0.015766,1.006281,192.000000,0.000000,0.000000,0.000000,0.000000,0.000000,0.000000,0.000000,0.000000,0.000000,1770802971.453419,0.000000
170.000000,19218.745138,16452.023858,-3708.981420,-17318.511584,-16783.030842,-2125.852063,-18984.342394,-9211.600925,10882.058547,-8413.956572,-1233.905701,7246.592015,19959.951336,21901.535618,4718.721475,1752.175600,0.007156,-0.015766,1.006281,192.000000,0.000000,0.000000,0.000000,0.000000,0.000000,0.000000,0.000000,0.000000,0.000000,1770802971.453430,0.000000
172.000000,19234.592525,16471.425172,-3699.571335,-17298.015034,-16773.508999,-2108.998848,-18963.376458,-9197.407567,10892.273294,-8403.786529,-1221.992221,7265.747460,19967.170950,21910.833944,4713.446464,1752.667338,0.007156,-0.015766,1.006281,192.000000,0.000000,0.000000,0.000000,0.000000,0.000000,0.000000,0.000000,0.000000,0.000000,1770802971.453440,0.000000
174.000000,19209.960903,16446.391218,-3714.234080,-17319.606819,-16791.435098,-2115.860834,-18984.543560,-9217.032399,10877.677605,-8403.697122,-1233.391611,7256.225616,19965.762790,21921.719244,4709.333743,1753.092021,0.007156,-0.015766,1.006281,192.000000,0.000000,0.000000,0.000000,0.000000,0.000000,0.000000,0.000000,0.000000,0.000000,1770802971.453451,0.000000
176.000000,19220.689740,16454.840178,-3702.633524,-17309.280313,-16771.787914,-2103.768540,-18974.529979,-9210.952724,10886.797117,-8416.415264,-1232.743410,7247.642547,19966.321584,21914.432575,4717.045095,1756.422431,0.004000,-0.012000,1.006000,192.000000,0.000000,16.000000,127.500000,80.000000,15.500000,56.000000,0.000000,0.000000,0.000000,1770802971.453462,0.000000
178.000000,19216.353502,16452.090913,-3702.678228,-17311.671950,-16764.747115,-2108.931793,-18975.893435,-9215.110149,10884.807811,-8401.573706,-1225.032058,7261.500628,19973.451790,21926.167241,4724.667039,1751.996786,0.004000,-0.012000,1.006000,192.000000,0.000000,0.000000,0.000000,0.000000,0.000000,0.000000,0.000000,0.000000,0.000000,1770802971.453472,0.000000
180.000000,19213.827755,16452.090913,-3703.594649,-17318.869212,-16772.816094,-2118.923023,-18984.655319,-9215.154852,10872.782573,-8419.723322,-1243.315785,7237.696020,19964.511092,21916.578343,4728.556243,1749.560445,0.004000,-0.012000,1.006000,192.000000,0.000000,0.000000,0.000000,0.000000,0.000000,0.000000,0.000000,0.000000,0.000000,1770802971.453483,0.000000
182.000000,19234.726636,16471.805152,-3694.989228,-17298.082089,-16752.498359,-2099.499357,-18964.136417,-9197.675788,10890.283989,-8399.159717,-1222.461608,7265.546294,19978.972671,21933.900944,4735.105304,1755.058975,0.004000,-0.012000,1.006000,192.000000,0.000000,0.000000,0.000000,0.000000,0.000000,0.000000,0.000000,0.000000,0.000000,1770802971.453495,0.000000
184.000000,19218.476918,16449.185187,-3711.194242,-17320.679703,-16780.080411,-2122.074619,-18987.449287,-9213.366713,10885.679529,-8401.439595,-1228.742448,7258.729012,19982.213674,21929.542354,4722.476569,1750.745088,0.004000,-0.012000,1.006000,192.000000,0.000000,0.000000,0.000000,0.000000,0.000000,0.000000,0.000000,0.000000,0.000000,1770802971.453507,0.000000
186.000000,19229.786900,16467.848893,-3704.734588,-17304.385281,-16769.396278,-2089.865755,-18973.166522,-9201.900268,10892.295646,-8408.011008,-1229.278890,7255.800933,19974.837598,21926.971904,4716.419246,1754.813105,0.002000,-0.012000,1.006000,192.000000,0.000000,8.000000,127.500000,80.000000,15.500000,56.000000,0.000000,0.000000,0.000000,1770802971.453518,0.000000
188.000000,19225.897697,16464.250262,-3708.847309,-17306.195772,-16776.258263,-2104.863775,-18972.831246,-9209.253992,10895.871925,-8382.127688,-1220.002916,7276.029262,19986.639319,21950.865919,4713.893499,1754.500181,0.002000,-0.012000,1.006000,192.000000,0.000000,0.000000,0.000000,0.000000,0.000000,0.000000,0.000000,0.000000,0.000000,1770802971.453529,0.000000
190.000000,19211.033787,16444.446617,-3712.088312,-17316.969313,-16786.808287,-2112.083389,-18985.482333,-9222.977963,10884.763108,-8408.994485,-1241.326480,7245.385020,19970.523712,21935.152642,4714.966382,1753.762573,0.002000,-0.012000,1.006000,192.000000,0.000000,0.000000,0.000000,0.000000,0.000000,0.000000,0.000000,0.000000,0.000000,1770802971.453540,0.000000
192.000000,19223.394301,16460.226948,-3704.488719,-17302.060700,-16764.165969,-2101.868642,-18969.880816,-9216.518309,10890.686320,-8401.014912,-1231.156436,7259.019585,19976.849255,21931.933991,4723.236528,1758.255274,0.002000,-0.012000,1.006000,192.000000,0.000000,0.000000,0.000000,0.000000,0.000000,0.000000,0.000000,0.000000,0.000000,1770802971.453550,0.000000
194.000000,19192.973577,16425.157061,-3718.682077,-17328.882793,-16783.164952,-2116.441979,-18995.585322,-9240.077047,10870.636805,-8409.866203,-1244.388669,7243.730991,19963.974650,21912.823249,4721.247223,1752.689690,0.002000,-0.012000,1.006000,192.000000,0.000000,0.000000,0.000000,0.000000,0.000000,0.000000,0.000000,0.000000,0.000000,1770802971.453561,0.000000
196.000000,19206.384624,16437.942259,-3704.823995,-17320.076206,-16767.138751,-2114.117398,-18983.895360,-9230.510501,10869.854494,-8432.933203,-1248.210817,7229.470578,19954.899842,21907.525886,4732.110170,1747.437030,0.008000,-0.012000,1.008000,192.000000,0.000000,32.000000,127.500000,80.000000,15.500000,64.000000,0.000000,0.000000,0.000000,1770802971.453571,0.000000
198.000000,19212.799574,16443.127864,-3703.907574,-17317.393996,-16756.387562,-2119.705334,-18980.363784,-9227.448312,10872.380241,-8409.754444,-1236.163227,7247.106105,19976.268110,21925.295523,4736.938147,1743.994861,0.008000,-0.012000,1.008000,192.000000,0.000000,0.000000,0.000000,0.000000,0.000000,0.000000,0.000000,0.000000,0.000000,1770802971.453582,0.000000
200.000000,19206.921066,16438.009314,-3711.082484,-17324.032465,-16769.910368,-2123.348668,-18990.422069,-9230.890480,10868.468686,-8425.780645,-1251.340062,7225.201395,19958.140845,21912.443270,4733.965365,1746.319443,0.008000,-0.012000,1.008000,192.000000,0.000000,0.000000,0.000000,0.000000,0.000000,0.000000,0.000000,0.000000,0.000000,1770802971.453592,0.000000
202.000000,19233.027903,16467.848893,-3703.728760,-17297.858572,-16762.221368,-2099.320543,-18966.997441,-9209.321047,10884.047852,-8403.071273,-1232.519893,7254.973919,19965.203996,21937.924258,4728.399781,1757.696480,0.008000,-0.012000,1.008000,192.000000,0.000000,0.000000,0.000000,0.000000,0.000000,0.000000,0.000000,0.000000,0.000000,1770802971.453602,0.000000
204.000000,19222.835508,16454.773123,-3713.272955,-17309.883810,-16791.412746,-2121.024087,-18982.531903,-9215.244259,10879.421041,-8390.107261,-1232.743410,7259.645433,19967.036839,21947.088474,4712.910022,1759.462268,0.008000,-0.012000,1.008000,192.000000,0.000000,0.000000,0.000000,0.000000,0.000000,0.000000,0.000000,0.000000,0.000000,1770802971.453613,0.000000
206.000000,19242.437988,16473.012146,-3701.113606,-17295.399880,-16788.350557,-2109.579993,-18968.025621,-9198.838079,10893.614399,-8393.817651,-1222.215739,7260.964186,19966.567453,21947.401398,4713.088836,1766.145440,0.008000,-0.012000,1.008000,192.000000,0.000000,32.000000,127.500000,80.000000,15.500000,64.000000,0.000000,0.000000,0.000000,1770802971.453623,0.000000
208.000000,19241.543918,16472.118076,-3704.980457,-17295.355176,-16785.802458,-2089.776348,-18967.869159,-9201.185012,10899.671721,-8373.902246,-1209.028209,7278.756175,19978.190360,21961.572404,4712.887670,1761.920960,0.008000,-0.012000,1.008000,192.000000,0.000000,0.000000,0.000000,0.000000,0.000000,0.000000,0.000000,0.000000,0.000000,1770802971.453634,0.000000
210.000000,19223.170784,16450.928623,-3712.490644,-17312.901296,-16795.413708,-2112.865700,-18984.409450,-9214.797224,10889.814602,-8398.846793,-1229.435352,7249.162465,19963.952299,21943.109863,4710.272516,1753.337890,0.008000,-0.012000,1.008000,192.000000,0.000000,0.000000,0.000000,0.000000,0.000000,0.000000,0.000000,0.000000,0.000000,1770802971.933120,0.000000
212.000000,19231.195060,16465.166684,-3704.779292,-17297.143316,-16776.057097,-2111.524595,-18967.958566,-9205.253029,10892.921495,-8397.528040,-1221.478131,7262.908788,19971.395430,21940.293543,4717.313316,1759.484620,0.008000,-0.012000,1.008000,192.000000,0.000000,0.000000,0.000000,0.000000,0.000000,0.000000,0.000000,0.000000,0.000000,1770802971.933200,0.000000
214.000000,19214.006569,16443.753713,-3716.245737,-17317.461052,-16800.264037,-2113.290383,-18989.148019,-9222.933259,10877.141163,-8396.008121,-1230.664698,7253.968090,19962.812360,21937.968962,4713.759388,1755.684823,0.008000,-0.012000,1.008000,192.000000,0.000000,0.000000,0.000000,0.000000,0.000000,0.000000,0.000000,0.000000,0.000000,1770802971.933249,0.000000
216.000000,19229.496328,16460.092838,-3702.789986,-17305.659331,-16784.662519,-2108.037723,-18974.440572,-9208.851660,10881.902085,-8409.262706,-1230.552939,7246.256738,19958.252604,21934.146814,4719.995525,1760.669262,0.006000,-0.010000,1.006000,192.000000,0.000000,24.000000,127.500000,88.000000,15.500000,56.000000,0.000000,0.000000,0.000000,1770802971.933298,0.000000
218.000000,19231.619743,16463.579710,-3700.018370,-17307.089842,-16774.693641,-2117.917194,-18972.361859,-9208.292867,10886.864172,-8387.559162,-1218.997087,7267.557951,19977.117476,21959.225471,4717.782702,1751.907379,0.006000,-0.010000,1.006000,192.000000,0.000000,0.000000,0.000000,0.000000,0.000000,0.000000,0.000000,0.000000,0.000000,1770802971.933347,0.000000
220.000000,19218.856897,16451.845044,-3701.538289,-17319.942095,-16774.179551,-2130.702392,-18984.767078,-9217.077102,10883.287893,-8403.786529,-1232.810465,7246.323794,19969.339069,21924.736729,4723.325935,1751.460344,0.006000,-0.010000,1.006000,192.000000,0.000000,0.000000,0.000000,0.000000,0.000000,0.000000,0.000000,0.000000,0.000000,1770802971.933393,0.000000
222.000000,19235.419540,16468.005355,-3695.480966,-17301.814831,-16754.867644,-2114.653839,-18965.030487,-9204.962457,10888.115870,-8397.751558,-1224.786189,7260.450096,19974.681136,21933.677427,4730.344383,1749.158114,0.006000,-0.010000,1.006000,192.000000,0.000000,0.000000,0.000000,0.000000,0.000000,0.000000,0.000000,0.000000,0.000000,1770802971.933413,0.000000
224.000000,19213.894810,16442.278497,-3718.078580,-17321.886697,-16784.036670,-2118.766560,-18988.544522,-9224.810806,10878.728137,-8397.148060,-1234.173922,7252.984614,19973.228273,21935.018532,4725.359944,1750.678033,0.006000,-0.010000,1.006000,192.000000,0.000000,0.000000,0.000000,0.000000,0.000000,0.000000,0.000000,0.000000,0.000000,1770802971.933426,0.000000
226.000000,19220.935609,16451.196844,-3715.999867,-17314.711787,-16785.824810,-2109.691752,-18980.743764,-9218.552317,10878.951654,-8413.531889,-1240.901797,7242.658108,19959.638412,21927.888325,4722.565975,1758.076460,0.006000,-0.010000,1.006000,192.000000,0.000000,24.000000,127.500000,88.000000,15.500000,56.000000,0.000000,0.000000,0.000000,1770802971.933437,0.000000
228.000000,19225.651828,16455.778951,-3717.050399,-17310.464956,-16779.454563,-2115.726723,-18976.608691,-9217.099454,10878.974006,-8398.310351,-1232.162265,7258.125515,19970.166084,21934.236221,4718.721475,1751.616806,0.006000,-0.010000,1.006000,192.000000,0.000000,0.000000,0.000000,0.000000,0.000000,0.000000,0.000000,0.000000,0.000000,1770802971.933449,0.000000
230.000000,19214.922990,16444.446617,-3722.705391,-17321.462014,-16794.989025,-2113.938584,-18990.064441,-9223.648515,10873.274311,-8417.890479,-1247.964948,7233.873872,19953.514034,21923.887363,4714.452292,1755.058975,0.006000,-0.010000,1.006000,192.000000,0.000000,0.000000,0.000000,0.000000,0.000000,0.000000,0.000000,0.000000,0.000000,1770802971.933460,0.000000
232.000000,19235.240726,16465.881940,-3709.048475,-17299.266732,-16780.147467,-2094.917249,-18968.651470,-9206.348265,10885.679529,-8405.977000,-1233.682183,7253.454000,19963.125284,21941.165261,4712.977077,1758.568199,0.006000,-0.010000,1.006000,192.000000,0.000000,0.000000,0.000000,0.000000,0.000000,0.000000,0.000000,0.000000,0.000000,1770802971.933472,0.000000
234.000000,19226.791766,16455.354268,-3714.435245,-17315.561153,-16791.613912,-2111.614002,-18985.370575,-9214.283134,10884.584294,-8395.583438,-1232.743410,7253.901035,19969.651993,21944.227450,4710.853661,1754.142553,0.006000,-0.010000,1.006000,192.000000,0.000000,0.000000,0.000000,0.000000,0.000000,0.000000,0.000000,0.000000,0.000000,1770802971.933484,0.000000
236.000000,19239.107578,16470.866379,-3702.834690,-17303.357101,-16775.163028,-2095.945429,-18974.217054,-9202.056730,10895.268428,-8403.987694,-1227.490750,7252.582282,19973.161217,21948.407227,4717.626240,1754.835457,0.006000,-0.010000,1.004000,192.000000,0.000000,24.000000,127.500000,88.000000,15.500000,40.000000,0.000000,0.000000,0.000000,1770802971.933495,0.000000
238.000000,19240.001647,16471.849855,-3700.823033,-17300.138450,-16759.896786,-2088.323484,-18971.847769,-9202.950800,10901.392806,-8379.512534,-1215.800788,7271.648320,19989.075659,21951.961154,4718.341496,1757.517667,0.006000,-0.010000,1.004000,192.000000,0.000000,0.000000,0.000000,0.000000,0.000000,0.000000,0.000000,0.000000,0.000000,1770802971.933507,0.000000
240.000000,19226.992932,16452.739114,-3703.594649,-17316.723444,-16772.302004,-2089.709293,-18984.454153,-9215.378370,10895.938980,-8405.977000,-1232.184617,7245.273262,19977.810380,21941.098206,4725.874034,1757.607073,0.006000,-0.010000,1.004000,192.000000,0.000000,0.000000,0.000000,0.000000,0.000000,0.000000,0.000000,0.000000,0.000000,1770802971.933519,0.000000
242.000000,19236.067740,16466.016050,-3696.956181,-17302.127755,-16752.408952,-2088.748168,-18968.539711,-9209.365750,10898.084748,-8403.294790,-1226.507273,7254.772753,19983.130095,21944.719189,4736.848740,1757.696480,0.006000,-0.010000,1.004000,192.000000,0.000000,0.000000,0.000000,0.000000,0.000000,0.000000,0.000000,0.000000,0.000000,1770802971.933530,0.000000
244.000000,19216.129984,16443.664306,-3710.724856,-17325.530031,-16767.965766,-2116.531386,-18990.533828,-9227.895347,10889.054643,-8404.881764,-1237.258463,7242.166369,19981.297252,21939.198308,4732.221929,1751.370937,0.006000,-0.010000,1.004000,192.000000,0.000000,0.000000,0.000000,0.000000,0.000000,0.000000,0.000000,0.000000,0.000000,1770802971.933541,0.000000
246.000000,19228.937534,16461.545701,-3702.588821,-17311.359025,-16760.634394,-2109.244717,-18977.681575,-9213.523175,10890.708672,-8416.929354,-1238.823085,7234.522073,19982.794819,21941.254668,4734.524159,1752.712041,0.006000,-0.011000,1.004000,192.000000,0.000000,24.000000,127.500000,80.000000,15.500000,48.000000,0.000000,0.000000,0.000000,1770802971.933553,0.000000
248.000000,19238.079397,16467.670079,-3703.259373,-17308.296836,-16763.160141,-2114.720895,-18973.524150,-9208.158756,10895.380186,-8390.375482,-1222.036925,7259.757192,19982.258377,21946.552032,4728.332726,1747.481733,0.006000,-0.011000,1.004000,192.000000,0.000000,0.000000,0.000000,0.000000,0.000000,0.000000,0.000000,0.000000,0.000000,1770802971.933564,0.000000
250.000000,19235.710113,16461.836274,-3709.316696,-17317.237534,-16775.274786,-2133.697526,-18983.850656,-9212.763216,10891.736852,-8407.720436,-1231.916396,7239.327698,19969.339069,21932.962171,4723.616507,1750.834495,0.006000,-0.011000,1.004000,192.000000,0.000000,0.000000,0.000000,0.000000,0.000000,0.000000,0.000000,0.000000,0.000000,1770802971.933578,0.000000
252.000000,19241.320400,16471.738097,-3708.109702,-17302.999473,-16772.659632,-2100.907517,-18971.847769,-9208.270515,10899.470556,-8399.159717,-1222.148683,7255.644471,19976.558683,21944.965058,4721.984830,1758.858771,0.006000,-0.011000,1.004000,192.000000,0.000000,0.000000,0.000000,0.000000,0.000000,0.000000,0.000000,0.000000,0.000000,1770802971.933589,0.000000
254.000000,19227.439967,16454.840178,-3716.648068,-17319.495060,-16789.244627,-2102.002752,-18990.511476,-9221.815672,10893.189716,-8401.283133,-1234.889178,7246.636718,19976.536331,21948.027247,4715.279307,1753.829629,0.006000,-0.011000,1.004000,192.000000,0.000000,0.000000,0.000000,0.000000,0.000000,0.000000,0.000000,0.000000,0.000000,1770802971.933601,0.000000
0.000000,19242.728560,16470.464047,-3708.623792,-17307.559229,-16776.347670,-2089.239906,-18978.463886,-9209.097530,10897.816527,-8408.681561,-1234.084515,7245.854407,19974.882302,21949.770683,4721.560147,1758.434088,0.008000,-0.011500,1.004000,192.000000,0.000000,40.000000,127.500000,80.000000,15.500000,48.000000,0.000000,0.000000,0.000000,1770802971.933612,0.000000
2.000000,19251.579851,16480.656443,-3704.645181,-17304.072357,-16764.635356,-2103.723836,-18972.451266,-9201.520288,10906.667817,-8385.681616,-1220.561709,7267.513247,19986.304043,21959.225471,4721.135464,1752.712041,0.008000,-0.011500,1.004000,192.000000,0.000000,0.000000,0.000000,0.000000,0.000000,0.000000,0.000000,0.000000,0.000000,1770802971.933624,0.000000
4.000000,19238.839357,16468.966480,-3707.819129,-17318.399825,-16779.678080,-2130.992965,-18984.923540,-9208.516384,10897.056567,-8399.942029,-1237.727849,7244.915634,19974.234101,21953.972811,4718.542661,1748.487562,0.008000,-0.011500,1.004000,192.000000,0.000000,0.000000,0.000000,0.000000,0.000000,0.000000,0.000000,0.000000,0.000000,1770802971.933635,0.000000
6.000000,19255.603165,16488.703071,-3700.554812,-17298.752642,-16765.372964,-2094.269048,-18966.595109,-9194.077157,10904.298533,-8394.778776,-1226.596680,7261.724146,19981.878398,21946.529680,4723.549452,1753.472001,0.008000,-0.011500,1.004000,192.000000,0.000000,0.000000,0.000000,0.000000,0.000000,0.000000,0.000000,0.000000,0.000000,1770802971.933646,0.000000
8.000000,19239.733427,16469.078239,-3713.496472,-17315.985837,-16783.500228,-2102.807415,-18985.057650,-9208.270515,10894.910800,-8389.146136,-1230.441181,7259.488971,19976.044592,21953.883404,4717.268612,1752.846152,0.008000,-0.011500,1.004000,192.000000,0.000000,0.000000,0.000000,0.000000,0.000000,0.000000,0.000000,0.000000,0.000000,1770802971.933658,0.000000
10.000000,19244.829624,16478.220103,-3705.673362,-17307.648636,-16770.469161,-2112.061037,-18975.647566,-9201.319122,10894.977855,-8404.479433,-1232.654003,7248.626023,19968.132075,21947.021418,4723.884728,1757.562370,0.007000,-0.013750,1.006000,192.000000,0.000000,24.000000,127.500000,64.000000,15.500000,64.000000,0.000000,0.000000,0.000000,1770802971.933669,0.000000
12.000000,19241.901546,16478.890655,-3707.059170,-17305.391110,-16766.177626,-2111.144616,-18974.038240,-9201.833213,10898.621189,-8381.166563,-1221.478131,7269.569608,19978.078601,21964.656945,4725.516406,1756.958873,0.007000,-0.013750,1.006000,192.000000,0.000000,0.000000,0.000000,0.000000,0.000000,0.000000,0.000000,0.000000,0.000000,1770802971.933680,0.000000
14.000000,19237.654714,16470.732268,-3708.981420,-17312.007226,-16783.679042,-2094.604325,-18984.051822,-9205.856527,10888.115870,-8400.433767,-1238.778381,7247.240215,19962.253566,21952.609355,4719.257917,1757.316501,0.007000,-0.013750,1.006000,192.000000,0.000000,0.000000,0.000000,0.000000,0.000000,0.000000,0.000000,0.000000,0.000000,1770802971.933692,0.000000
16.000000,19261.481674,16495.587408,-3695.302152,-17289.208447,-16762.735458,-2069.726833,-18960.314269,-9184.600018,10907.517184,-8382.909999,-1215.443160,7272.743556,19977.430401,21965.595718,4721.806016,1762.882085,0.007000,-0.013750,1.006000,192.000000,0.000000,0.000000,0.000000,0.000000,0.000000,0.000000,0.000000,0.000000,0.000000,1770802971.933703,0.000000
18.000000,19240.046351,16472.520408,-3709.093178,-17312.409557,-16788.864647,-2104.282630,-18983.671842,-9203.107262,10894.083785,-8379.400775,-1218.080666,7267.401489,19967.863854,21959.806616,4713.804092,1752.600283,0.007000,-0.013750,1.006000,192.000000,0.000000,0.000000,0.000000,0.000000,0.000000,0.000000,0.000000,0.000000,0.000000,1770802971.933714,0.000000
20.000000,19247.489482,16482.645748,-3704.131091,-17307.089842,-16780.125115,-2104.439092,-18975.334641,-9197.966361,10896.453070,-8396.768081,-1222.103980,7256.985576,19968.713220,21947.155529,4717.670943,1755.885989,0.007500,-0.013875,1.005000,192.000000,0.000000,32.000000,127.500000,72.000000,15.500000,48.000000,0.000000,0.000000,0.000000,1770802971.933726,0.000000
22.000000,19246.148377,16483.137486,-3706.858004,-17304.631150,-16775.654766,-2096.906554,-18974.261758,-9202.548468,10889.792250,-8380.026624,-1218.974736,7268.630835,19972.848293,21954.598660,4712.395932,1751.527399,0.007500,-0.013875,1.005000,192.000000,0.000000,0.000000,0.000000,0.000000,0.000000,0.000000,0.000000,0.000000,0.000000,1770802971.933737,0.000000
24.000000,19227.216450,16461.746867,-3711.618926,-17320.523241,-16785.444830,-2115.816130,-18991.025566,-9220.608678,10877.409384,-8405.373502,-1240.499466,7239.506512,19959.683115,21937.678389,4715.748693,1753.650815,0.007500,-0.013875,1.005000,192.000000,0.000000,0.000000,0.000000,0.000000,0.000000,0.000000,0.000000,0.000000,0.000000,1770802971.933749,0.000000
26.000000,19240.046351,16476.186094,-3701.068902,-17302.351272,-16760.477932,-2086.624752,-18973.412391,-9210.639800,10882.527933,-8400.098491,-1232.564596,7250.503570,19965.874549,21940.874689,4724.979964,1760.222228,0.007500,-0.013875,1.005000,192.000000,0.000000,0.000000,0.000000,0.000000,0.000000,0.000000,0.000000,0.000000,0.000000,1770802971.933762,0.000000
28.000000,19227.998761,16461.948033,-3710.054303,-17322.221973,-16778.538141,-2113.603307,-18989.952682,-9221.480396,10879.286930,-8397.237467,-1235.447971,7245.228558,19970.680174,21947.893136,4722.118941,1754.634291,0.007500,-0.013875,1.005000,192.000000,0.000000,0.000000,0.000000,0.000000,0.000000,0.000000,0.000000,0.000000,0.000000,1770802971.933774,0.000000
30.000000,19243.868499,16478.778896,-3702.119434,-17312.498964,-16775.833580,-2124.466255,-18978.173313,-9207.778777,10882.773803,-8404.457081,-1233.101038,7240.780561,19962.566490,21927.709511,4725.181130,1750.633329,0.005750,-0.011938,1.006500,192.000000,0.000000,16.000000,127.500000,88.000000,15.500000,64.000000,0.000000,0.000000,0.000000,1770802971.933786,0.000000
32.000000,19244.047313,16484.545646,-3702.901745,-17305.748738,-16772.234949,-2113.111569,-18972.384211,-9204.582477,10894.195544,-8383.491145,-1217.208948,7264.138134,19977.050421,21948.451930,4720.621374,1742.966681,0.005750,-0.011938,1.006500,192.000000,0.000000,0.000000,0.000000,0.000000,0.000000,0.000000,0.000000,0.000000,0.000000,1770802971.933797,0.000000
34.000000,19231.485633,16473.235664,-3709.450806,-17315.695264,-16786.607121,-2112.776293,-18983.448325,-9211.980905,10881.656215,-8400.411415,-1234.039811,7245.429724,19962.499435,21944.920354,4716.441598,1747.794658,0.005750,-0.011938,1.006500,192.000000,0.000000,0.000000,0.000000,0.000000,0.000000,0.000000,0.000000,0.000000,0.000000,1770802971.933808,0.000000
36.000000,19249.702305,16492.569923,-3700.443053,-17292.404746,-16765.507074,-2088.099967,-18962.638851,-9198.033416,10889.211105,-8389.593171,-1220.628765,7267.423840,19975.195226,21960.253651,4720.911946,1749.962777,0.005750,-0.011938,1.006500,192.000000,0.000000,0.000000,0.000000,0.000000,0.000000,0.000000,0.000000,0.000000,0.000000,1770802971.933820,0.000000
38.000000,19223.930743,16466.708954,-3717.631545,-17316.142299,-16793.826734,-2114.542081,-18989.282130,-9220.340457,10878.258750,-8387.983845,-1232.229320,7260.986538,19963.080581,21950.083607,4712.418284,1755.014271,0.005750,-0.011938,1.006500,192.000000,0.000000,0.000000,0.000000,0.000000,0.000000,0.000000,0.000000,0.000000,0.000000,1770802971.933831,0.000000
40.000000,19232.759682,16477.951882,-3709.249641,-17309.704996,-16783.477877,-2095.833671,-18982.062516,-9215.288963,10881.477401,-8408.323933,-1237.459628,7248.581320,19958.632583,21927.731863,4717.849757,1761.540981,0.010875,-0.011969,1.006250,192.000000,0.000000,64.000000,127.500000,80.000000,15.500000,56.000000,0.000000,0.000000,0.000000,1770802971.933842,0.000000
42.000000,19237.766473,16484.478591,-3706.656838,-17309.101499,-16773.285481,-2101.868642,-18978.329775,-9211.623277,10882.773803,-8388.430880,-1228.541282,7263.713451,19971.708354,21949.614221,4721.940127,1760.222228,0.010875,-0.011969,1.006250,192.000000,0.000000,0.000000,0.000000,0.000000,0.000000,0.000000,0.000000,0.000000,0.000000,1770802971.933854,0.000000
44.000000,19229.630438,16471.112248,-3706.969763,-17316.745796,-16783.746098,-2117.917194,-18987.583397,-9214.864280,10879.085765,-8404.837061,-1239.515989,7243.373363,19964.220520,21938.259535,4722.834196,1756.824762,0.010875,-0.011969,1.006250,192.000000,0.000000,0.000000,0.000000,0.000000,0.000000,0.000000,0.000000,0.000000,0.000000,1770802971.933866,0.000000
46.000000,19245.209604,16492.212295,-3696.553850,-17298.953807,-16763.651879,-2108.372999,-18966.393944,-9198.368692,10889.680492,-8390.755462,-1224.540320,7264.763983,19968.690868,21954.084570,4726.589289,1752.466172,0.010875,-0.011969,1.006250,192.000000,0.000000,0.000000,0.000000,0.000000,0.000000,0.000000,0.000000,0.000000,0.000000,1770802971.933877,0.000000
48.000000,19230.502156,16476.342556,-3707.059170,-17311.761357,-16779.611025,-2116.598441,-18982.442496,-9209.633971,10883.019672,-8382.217095,-1227.110771,7265.725108,19968.400296,21952.184671,4721.828368,1745.313614,0.010875,-0.011969,1.006250,192.000000,0.000000,0.000000,0.000000,0.000000,0.000000,0.000000,0.000000,0.000000,0.000000,1770802971.933888,0.000000
50.000000,19237.408845,16483.293949,-3703.974629,-17304.675854,-16778.381679,-2100.304019,-18975.781676,-9204.090739,10890.172230,-8394.398796,-1226.462570,7260.628910,19968.512055,21947.624916,4723.057714,1750.029832,0.010875,-0.011969,1.006250,192.000000,0.000000,0.000000,0.000000,0.000000,0.000000,0.000000,0.000000,0.000000,0.000000,1770802971.933900,0.000000
52.000000,19241.387456,16487.674890,-3701.158309,-17299.602008,-16770.849141,-2112.061037,-18968.360897,-9199.955666,10893.368529,-8379.311368,-1219.198253,7276.789221,19968.288537,21952.162320,4721.761313,1743.145495,0.010000,-0.006000,1.018000,192.000000,0.000000,40.000000,127.500000,104.000000,15.500000,104.000000,0.000000,0.000000,0.000000,1770802971.933912,0.000000
54.000000,19221.248534,16466.172512,-3711.216594,-17316.768148,-16789.557551,-2131.998793,-18985.482333,-9216.026570,10875.956521,-8403.250087,-1240.365355,7247.731954,19956.643278,21935.130290,4721.247223,1744.128972,0.010000,-0.006000,1.018000,192.000000,0.000000,0.000000,0.000000,0.000000,0.000000,0.000000,0.000000,0.000000,0.000000,1770802971.933923,0.000000
56.000000,19238.839357,16485.439716,-3698.610210,-17295.601046,-16767.921062,-2099.812281,-18964.806970,-9201.721454,10888.451146,-8392.297732,-1225.277928,7265.412183,19967.841502,21946.932011,4726.924566,1748.755783,0.010000,-0.006000,1.018000,192.000000,0.000000,0.000000,0.000000,0.000000,0.000000,0.000000,0.000000,0.000000,0.000000,1770802971.933934,0.000000
58.000000,19220.287409,16461.702163,-3710.166062,-17315.628209,-16781.890903,-2118.967726,-18985.057650,-9218.597021,10876.224741,-8394.398796,-1234.643308,7256.024451,19962.767656,21959.940727,4719.883766,1754.746050,0.010000,-0.006000,1.018000,192.000000,0.000000,0.000000,0.000000,0.000000,0.000000,0.000000,0.000000,0.000000,0.000000,1770802971.933947,0.000000
60.000000,19240.113406,16482.601044,-3699.101949,-17303.982950,-16767.451676,-2093.151461,-18974.328813,-9205.320085,10890.842782,-8401.350188,-1228.831855,7254.012794,19965.740438,21933.588020,4725.605813,1766.681882,0.010000,-0.006000,1.018000,192.000000,0.000000,0.000000,0.000000,0.000000,0.000000,0.000000,0.000000,0.000000,0.000000,1770802971.933959,0.000000
62.000000,19244.896680,16487.205504,-3700.867736,-17298.573828,-16763.674231,-2078.354606,-18971.512493,-9203.062559,10899.738777,-8373.991653,-1216.225471,7275.023434,19978.391526,21964.366372,4720.755484,1765.117260,0.004000,-0.008000,1.006000,192.000000,0.000000,16.000000,127.500000,96.000000,15.500000,56.000000,0.000000,0.000000,0.000000,1770802971.933970,0.000000
64.000000,19225.942400,16469.011184,-3707.305039,-17312.521316,-16781.645034,-2097.644162,-18985.974072,-9215.668942,10891.066300,-8395.069348,-1235.135047,7251.129419,19964.801665,21950.485939,4717.045095,1764.714928,0.004000,-0.008000,1.006000,192.000000,0.000000,0.000000,0.000000,0.000000,0.000000,0.000000,0.000000,0.000000,0.000000,1770802971.933982,0.000000
66.000000,19242.393284,16488.770126,-3694.273972,-17297.702110,-16767.898711,-2103.120339,-18965.544577,-9201.497936,10894.016730,-8390.867220,-1223.825064,7266.418012,19961.426552,21957.705552,4717.402723,1756.265969,0.004000,-0.008000,1.006000,192.000000,0.000000,0.000000,0.000000,0.000000,0.000000,0.000000,0.000000,0.000000,0.000000,1770802971.933993,0.000000
68.000000,19227.059987,16473.190960,-3707.215632,-17318.221011,-16784.796630,-2129.428343,-18983.381269,-9212.115015,10886.551247,-8387.223886,-1227.647212,7263.735803,19962.365325,21950.709456,4714.608754,1744.777172,0.004000,-0.008000,1.006000,192.000000,0.000000,0.000000,0.000000,0.000000,0.000000,0.000000,0.000000,0.000000,0.000000,1770802971.934005,0.000000
70.000000,19243.510871,16489.485382,-3697.403216,-17306.151069,-16770.290347,-2122.700467,-18970.797237,-9198.145175,10887.020634,-8397.997427,-1228.563634,7258.661957,19957.202072,21942.439311,4719.973173,1742.229073,0.004000,-0.008000,1.006000,192.000000,0.000000,0.000000,0.000000,0.000000,0.000000,0.000000,0.000000,0.000000,0.000000,1770802971.934016,0.000000
72.000000,19246.751874,16493.084013,-3697.738492,-17300.361967,-16760.880263,-2098.113549,-18968.517359,-9197.876954,10895.916628,-8372.896418,-1213.610317,7279.739652,19966.187473,21958.040828,4725.047019,1742.854922,0.002000,-0.010000,1.010000,192.000000,0.000000,8.000000,127.500000,88.000000,15.500000,72.000000,0.000000,0.000000,0.000000,1770802971.934028,0.000000
74.000000,19235.687761,16482.109306,-3705.583955,-17315.538802,-16776.682946,-2109.334124,-18985.102354,-9210.326875,10889.255809,-8392.878877,-1232.765762,7250.794143,19955.726857,21949.033075,4722.700086,1745.246559,0.002000,-0.010000,1.010000,192.000000,0.000000,0.000000,0.000000,0.000000,0.000000,0.000000,0.000000,0.000000,0.000000,1770802972.414028,0.000000
76.000000,19254.932613,16503.455222,-3692.396425,-17296.629226,-16755.985231,-2098.046493,-18964.337583,-9194.747710,10904.097367,-8380.250142,-1217.074837,7271.424803,19970.255491,21957.571442,4725.985792,1747.213512,0.002000,-0.010000,1.010000,192.000000,0.000000,0.000000,0.000000,0.000000,0.000000,0.000000,0.000000,0.000000,0.000000,1770802972.414090,0.000000
78.000000,19236.961810,16481.952844,-3706.165100,-17316.745796,-16776.638243,-2116.330220,-18985.571740,-9210.393931,10893.301474,-8381.792412,-1226.954308,7262.953492,19965.360459,21956.744427,4717.201557,1748.465210,0.002000,-0.010000,1.010000,192.000000,0.000000,0.000000,0.000000,0.000000,0.000000,0.000000,0.000000,0.000000,0.000000,1770802972.414136,0.000000
80.000000,19248.450607,16489.686547,-3698.252582,-17305.368758,-16761.349650,-2093.866717,-18975.491104,-9201.095605,10898.665893,-8392.051863,-1226.909605,7258.281977,19961.806531,21953.346962,4722.700086,1756.601245,0.002000,-0.010000,1.010000,192.000000,0.000000,0.000000,0.000000,0.000000,0.000000,0.000000,0.000000,0.000000,0.000000,1770802972.414178,0.000000
82.000000,19248.875290,16493.888675,-3699.437225,-17299.825525,-16761.595519,-2071.358510,-18971.445438,-9201.967323,10898.129451,-8371.197685,-1218.348887,7275.381061,19969.584938,21972.323593,4721.336630,1762.233885,0.006000,-0.010000,1.018000,192.000000,0.000000,24.000000,127.500000,88.000000,15.500000,104.000000,0.000000,0.000000,0.000000,1770802972.414223,0.000000
84.000000,19235.128967,16481.461106,-3705.114568,-17309.995569,-16774.157199,-2096.750092,-18984.856485,-9209.410454,10889.501678,-8389.101432,-1234.710364,7251.196474,19956.553871,21964.902814,4720.017877,1759.529324,0.006000,-0.010000,1.018000,192.000000,0.000000,0.000000,0.000000,0.000000,0.000000,0.000000,0.000000,0.000000,0.000000,1770802972.414264,0.000000
86.000000,19259.291203,16506.450356,-3693.469309,-17292.740022,-16756.298155,-2097.577107,-18962.013002,-9189.360939,10903.560925,-8376.472697,-1218.482997,7271.134230,19966.746267,21968.792018,4727.058676,1755.014271,0.006000,-0.010000,1.018000,192.000000,0.000000,0.000000,0.000000,0.000000,0.000000,0.000000,0.000000,0.000000,0.000000,1770802972.414302,0.000000
88.000000,19238.459377,16483.718632,-3708.154405,-17314.197697,-16781.980310,-2103.612078,-18983.470676,-9204.873050,10893.390881,-8374.550447,-1221.969869,7269.793125,19962.253566,21967.540320,4718.028571,1747.101754,0.006000,-0.010000,1.018000,192.000000,0.000000,0.000000,0.000000,0.000000,0.000000,0.000000,0.000000,0.000000,0.000000,1770802972.414315,0.000000
90.000000,19254.530281,16498.560190,-3698.990190,-17302.015996,-16771.296176,-2097.353589,-18972.115990,-9193.719529,10895.044910,-8388.654398,-1223.378029,7262.908788,19953.201110,21959.069009,4720.911946,1749.873370,0.006000,-0.010000,1.018000,192.000000,0.000000,0.000000,0.000000,0.000000,0.000000,0.000000,0.000000,0.000000,0.000000,1770802972.414335,0.000000
92.000000,19256.318421,16501.041234,-3699.392521,-17298.596179,-16766.647013,-2104.997886,-18968.673822,-9193.004274,10896.654236,-8366.414412,-1210.659887,7283.807669,19964.376982,21971.049544,4721.023705,1747.437030,0.006000,-0.004000,1.012000,192.000000,0.000000,24.000000,127.500000,112.000000,15.500000,80.000000,0.000000,0.000000,0.000000,1770802972.414348,0.000000
94.000000,19246.260136,16486.870228,-3702.700579,-17309.168554,-16777.487609,-2117.939546,-18979.648528,-9199.486279,10884.539590,-8388.609694,-1230.150608,7258.103163,19947.590822,21958.353753,4716.508653,1742.787867,0.006000,-0.004000,1.012000,192.000000,0.000000,0.000000,0.000000,0.000000,0.000000,0.000000,0.000000,0.000000,0.000000,1770802972.414360,0.000000
96.000000,19261.302860,16502.829373,-3692.396425,-17291.756546,-16756.186397,-2094.649028,-18960.113103,-9188.958608,10898.375320,-8376.673863,-1212.336268,7275.738689,19957.559700,21968.546148,4727.706877,1748.465210,0.006000,-0.004000,1.012000,192.000000,0.000000,0.000000,0.000000,0.000000,0.000000,0.000000,0.000000,0.000000,0.000000,1770802972.414373,0.000000
98.000000,19240.962772,16479.002414,-3706.768597,-17312.543668,-16780.192170,-2112.262203,-18982.621310,-9207.599963,10889.881657,-8375.198647,-1218.930032,7269.837829,19951.748246,21963.315840,4723.191824,1742.743163,0.006000,-0.004000,1.012000,192.000000,0.000000,0.000000,0.000000,0.000000,0.000000,0.000000,0.000000,0.000000,0.000000,1770802972.414387,0.000000
100.000000,19253.949136,16496.012091,-3695.928001,-17296.897447,-16767.854007,-2096.504223,-18969.210263,-9191.394948,10895.737814,-8390.576648,-1220.002916,7264.875742,19946.294421,21953.816349,4724.957612,1751.348585,0.006000,-0.004000,1.012000,192.000000,0.000000,0.000000,0.000000,0.000000,0.000000,0.000000,0.000000,0.000000,0.000000,1770802972.414400,0.000000
102.000000,19256.296069,16498.962521,-3697.827899,-17296.316301,-16762.109609,-2087.228249,-18967.779752,-9191.797279,10898.710596,-8368.224903,-1206.010724,7288.613294,19958.744342,21969.239052,4727.058676,1751.616806,0.004000,-0.016000,1.012000,192.000000,0.000000,16.000000,127.500000,64.000000,15.500000,80.000000,0.000000,0.000000,0.000000,1770802972.414431,0.000000
104.000000,19245.969563,16488.278388,-3701.180661,-17309.637941,-16772.793743,-2109.602345,-18980.006156,-9200.492108,10885.813640,-8391.537773,-1228.854207,7260.226579,19942.740493,21950.552994,4721.448388,1748.956948,0.004000,-0.016000,1.012000,192.000000,0.000000,0.000000,0.000000,0.000000,0.000000,0.000000,0.000000,0.000000,0.000000,1770802972.414449,0.000000
106.000000,19253.524453,16501.600027,-3694.229268,-17294.192886,-16759.896786,-2098.985267,-18965.321060,-9191.529058,10898.352968,-8381.300674,-1214.079704,7276.297483,19954.810435,21963.740523,4726.969269,1752.622634,0.004000,-0.016000,1.012000,192.000000,0.000000,0.000000,0.000000,0.000000,0.000000,0.000000,0.000000,0.000000,0.000000,1770802972.414464,0.000000
108.000000,19237.341790,16478.980062,-3706.321562,-17313.795366,-16781.756792,-2111.301078,-18985.348223,-9206.884707,10887.333558,-8382.261799,-1222.908643,7266.887399,19952.552909,21960.253651,4721.761313,1744.754820,0.004000,-0.016000,1.012000,192.000000,0.000000,0.000000,0.000000,0.000000,0.000000,0.000000,0.000000,0.000000,0.000000,1770802972.414480,0.000000
110.000000,19239.889889,16484.053908,-3699.951315,-17305.391110,-16774.067792,-2105.936659,-18976.094601,-9201.900268,10889.658140,-8397.125709,-1225.970832,7261.254759,19940.572374,21951.134139,4724.890557,1747.302919,0.004000,-0.016000,1.012000,192.000000,0.000000,0.000000,0.000000,0.000000,0.000000,0.000000,0.000000,0.000000,0.000000,1770802972.414494,0.000000
112.000000,19239.822834,16484.210370,-3700.018370,-17300.898409,-16763.137789,-2103.388560,-18970.193740,-9200.939143,10891.043948,-8381.099508,-1215.890195,7278.219733,19950.921232,21959.426637,4725.047019,1751.281530,0.002000,-0.010000,1.002000,192.000000,0.000000,8.000000,127.500000,88.000000,15.500000,40.000000,0.000000,0.000000,0.000000,1770802972.414505,0.000000
114.000000,19221.650865,16465.189036,-3708.064998,-17316.298761,-16780.728612,-2118.654802,-18987.270473,-9214.350189,10873.698994,-8405.261744,-1238.398402,7248.693079,19935.878508,21936.471395,4724.667039,1754.231960,0.002000,-0.010000,1.002000,192.000000,0.000000,0.000000,0.000000,0.000000,0.000000,0.000000,0.000000,0.000000,0.000000,1770802972.414518,0.000000
116.000000,19247.958868,16490.401803,-3695.123338,-17295.712804,-16758.376868,-2107.747150,-18965.254005,-9194.434785,10886.104213,-8393.012988,-1220.315840,7268.943759,19946.294421,21942.975753,4728.779760,1756.198914,0.002000,-0.010000,1.002000,192.000000,0.000000,0.000000,0.000000,0.000000,0.000000,0.000000,0.000000,0.000000,0.000000,1770802972.414529,0.000000
118.000000,19236.872403,16476.253149,-3706.053341,-17314.555325,-16779.521618,-2124.578014,-18982.867179,-9203.464890,10887.400614,-8383.826421,-1220.673468,7270.128402,19947.479063,21946.328514,4722.565975,1747.951120,0.002000,-0.010000,1.002000,192.000000,0.000000,0.000000,0.000000,0.000000,0.000000,0.000000,0.000000,0.000000,0.000000,1770802972.414541,0.000000
120.000000,19248.025924,16486.557303,-3698.811376,-17304.787613,-16771.832618,-2099.588764,-18972.652432,-9192.736053,10890.216934,-8395.114052,-1219.265308,7263.378175,19942.896955,21942.484014,4723.817673,1751.169771,0.002000,-0.010000,1.002000,192.000000,0.000000,0.000000,0.000000,0.000000,0.000000,0.000000,0.000000,0.000000,0.000000,1770802972.414554,0.000000
122.000000,19251.736313,16489.150106,-3699.057245,-17298.350310,-16760.880263,-2102.449787,-18965.723391,-9189.539753,10893.010902,-8374.796316,-1206.793035,7285.953437,19957.738514,21966.869768,4719.906118,1746.252387,0.005000,-0.011000,1.003000,192.000000,0.000000,32.000000,127.500000,80.000000,15.500000,48.000000,0.000000,0.000000,0.000000,1770802972.414573,0.000000
124.000000,19237.989990,16472.766277,-3705.874527,-17312.655427,-16780.460391,-2110.831691,-18980.073211,-9198.860431,10885.299550,-8396.253991,-1224.942651,7259.801896,19948.998982,21950.620049,4719.548490,1752.622634,0.005000,-0.011000,1.003000,192.000000,0.000000,0.000000,0.000000,0.000000,0.000000,0.000000,0.000000,0.000000,0.000000,1770802972.414586,0.000000
126.000000,19248.495310,16487.607835,-3698.833728,-17294.751679,-16766.490551,-2099.879336,-18962.527092,-9187.282227,10891.245114,-8390.956627,-1214.772608,7274.889323,19946.674400,21948.809558,4719.682600,1752.801448,0.005000,-0.011000,1.003000,192.000000,0.000000,0.000000,0.000000,0.000000,0.000000,0.000000,0.000000,0.000000,0.000000,1770802972.414598,0.000000
128.000000,19224.958923,16463.065620,-3713.049437,-17311.649598,-16787.501191,-2099.544060,-18982.218979,-9203.978980,10878.459916,-8388.766156,-1223.467436,7268.407317,19946.897918,21957.325573,4714.407589,1754.634291,0.005000,-0.011000,1.003000,192.000000,0.000000,0.000000,0.000000,0.000000,0.000000,0.000000,0.000000,0.000000,0.000000,1770802972.414610,0.000000
130.000000,19233.251421,16474.017975,-3705.203975,-17304.161764,-16777.800534,-2105.154348,-18973.501798,-9195.507669,10874.257788,-8402.266610,-1228.451875,7260.651262,19935.632638,21955.425674,4716.821577,1755.707175,0.005000,-0.011000,1.003000,192.000000,0.000000,0.000000,0.000000,0.000000,0.000000,0.000000,0.000000,0.000000,0.000000,1770802972.414622,0.000000
132.000000,19242.236822,16482.332824,-3702.119434,-17297.299778,-16769.999775,-2107.501281,-18964.494045,-9187.595151,10878.124640,-8378.171429,-1215.353753,7285.081719,19946.607345,21955.135102,4717.536833,1751.907379,0.005500,-0.011500,1.003500,192.000000,0.000000,24.000000,127.500000,80.000000,15.500000,48.000000,0.000000,0.000000,0.000000,1770802972.414635,0.000000
134.000000,19232.267944,16468.452390,-3710.076655,-17313.348331,-16781.488571,-2113.938584,-18980.319080,-9196.111166,10870.323881,-8397.259819,-1226.641384,7262.752326,19936.437301,21946.239107,4715.078141,1748.733431,0.005500,-0.011500,1.003500,192.000000,0.000000,0.000000,0.000000,0.000000,0.000000,0.000000,0.000000,0.000000,0.000000,1770802972.414647,0.000000
136.000000,19254.329116,16493.329882,-3698.051417,-17288.672005,-16763.696583,-2097.778272,-18957.475598,-9178.788564,10887.847649,-8382.440613,-1209.385837,7284.299408,19944.148653,21958.264346,4720.889595,1751.750916,0.005500,-0.011500,1.003500,192.000000,0.000000,0.000000,0.000000,0.000000,0.000000,0.000000,0.000000,0.000000,0.000000,1770802972.414659,0.000000
138.000000,19230.435101,16468.474742,-3713.384713,-17312.968351,-16784.617816,-2119.593575,-18982.442496,-9203.576649,10879.666910,-8378.797278,-1219.287660,7278.622064,19947.143787,21959.605451,4712.910022,1754.991919,0.005500,-0.011500,1.003500,192.000000,0.000000,0.000000,0.000000,0.000000,0.000000,0.000000,0.000000,0.000000,0.000000,1770802972.414671,0.000000
140.000000,19244.248479,16482.958672,-3701.560641,-17302.641845,-16765.149446,-2112.664534,-18972.853598,-9193.630122,10880.113945,-8393.415319,-1223.132160,7268.228503,19941.131168,21952.072913,4716.486301,1755.908341,0.005500,-0.011500,1.003500,192.000000,0.000000,0.000000,0.000000,0.000000,0.000000,0.000000,0.000000,0.000000,0.000000,1770802972.414683,0.000000
142.000000,19245.477825,16483.562169,-3704.444016,-17300.004339,-16757.929833,-2082.154403,-18970.797237,-9195.820593,10890.082823,-8373.097583,-1206.457759,7284.992312,19954.475159,21969.194349,4718.520310,1758.478792,0.004750,-0.011750,1.002750,192.000000,0.000000,16.000000,127.500000,80.000000,15.500000,40.000000,0.000000,0.000000,0.000000,1770802972.414695,0.000000
144.000000,19243.622630,16473.772105,-3704.064036,-17308.565057,-16764.635356,-2091.095101,-18979.693232,-9199.732149,10877.342329,-8394.219982,-1223.936823,7258.080811,19945.914441,21952.944631,4720.129635,1759.574027,0.004750,-0.011750,1.002750,192.000000,0.000000,0.000000,0.000000,0.000000,0.000000,0.000000,0.000000,0.000000,0.000000,1770802972.414707,0.000000
146.000000,19257.257194,16489.530085,-3699.526632,-17295.154011,-16751.939565,-2086.758862,-18963.778789,-9189.673864,10893.301474,-8377.053842,-1206.502462,7280.656073,19955.928022,21957.236166,4725.091723,1759.797544,0.004750,-0.011750,1.002750,192.000000,0.000000,0.000000,0.000000,0.000000,0.000000,0.000000,0.000000,0.000000,0.000000,1770802972.414720,0.000000
148.000000,19236.023037,16466.172512,-3711.954202,-17315.427043,-16774.134847,-2116.911366,-18983.247159,-9208.382274,10880.337462,-8378.953740,-1220.382896,7268.764945,19950.518900,21952.877576,4715.726342,1748.085230,0.004750,-0.011750,1.002750,192.000000,0.000000,0.000000,0.000000,0.000000,0.000000,0.000000,0.000000,0.000000,0.000000,1770802972.414732,0.000000
150.000000,19242.147415,16471.291062,-3708.444978,-17310.666121,-16770.469161,-2111.099912,-18978.195665,-9204.180146,10883.064375,-8398.332703,-1223.601547,7256.806762,19947.412008,21939.399474,4720.643725,1750.767440,0.004750,-0.011750,1.002750,192.000000,0.000000,0.000000,0.000000,0.000000,0.000000,0.000000,0.000000,0.000000,0.000000,1770802972.414744,0.000000
152.000000,19248.227089,16474.375603,-3709.584917,-17302.910066,-16766.155275,-2083.473156,-18973.747668,-9203.219021,10884.003149,-8380.138383,-1213.543262,7276.543352,19952.239985,21957.414980,4717.067446,1754.276664,0.006375,-0.010875,1.004375,192.000000,0.000000,32.000000,127.500000,88.000000,15.500000,56.000000,0.000000,0.000000,0.000000,1770802972.414756,0.000000
154.000000,19230.345694,16456.047172,-3721.654859,-17319.428005,-16781.823848,-2106.696618,-18991.226732,-9215.803053,10874.749526,-8399.316180,-1232.117561,7252.403468,19932.391635,21945.523852,4713.781740,1752.712041,0.006375,-0.010875,1.004375,192.000000,0.000000,0.000000,0.000000,0.000000,0.000000,0.000000,0.000000,0.000000,0.000000,1770802972.414770,0.000000
156.000000,19250.216395,16479.292986,-3707.126225,-17297.433889,-16759.159179,-2094.537269,-18966.952737,-9195.775890,10883.511410,-8392.029511,-1221.098151,7269.301387,19940.930002,21950.485939,4715.189900,1753.293187,0.006375,-0.010875,1.004375,192.000000,0.000000,0.000000,0.000000,0.000000,0.000000,0.000000,0.000000,0.000000,0.000000,1770802972.414783,0.000000
158.000000,19232.692627,16459.623451,-3718.212690,-17316.634037,-16785.333071,-2122.119322,-18985.951720,-9211.310352,10878.079936,-8383.893476,-1222.595718,7268.943759,19939.633601,21954.263384,4712.351228,1748.576969,0.006375,-0.010875,1.004375,192.000000,0.000000,0.000000,0.000000,0.000000,0.000000,0.000000,0.000000,0.000000,0.000000,1770802972.414796,0.000000
160.000000,19245.075493,16471.983966,-3710.300173,-17306.441642,-16778.336975,-2110.786988,-18975.759325,-9199.910963,10878.415212,-8401.484299,-1227.960137,7258.527846,19934.291534,21934.973828,4715.614583,1753.337890,0.006375,-0.010875,1.004375,192.000000,0.000000,0.000000,0.000000,0.000000,0.000000,0.000000,0.000000,0.000000,0.000000,1770802972.414809,0.000000
162.000000,19247.064799,16472.945091,-3711.507167,-17302.775956,-16771.497342,-2108.395351,-18972.831246,-9200.559163,10885.701881,-8377.523229,-1214.504387,7281.237219,19943.835729,21954.889233,4711.121882,1753.874332,0.005188,-0.010437,1.006188,192.000000,0.000000,16.000000,127.500000,88.000000,15.500000,64.000000,0.000000,0.000000,0.000000,1770802972.414822,0.000000
164.000000,19235.441892,16461.992736,-3716.826882,-17316.589334,-16783.746098,-2104.260278,-18987.114011,-9209.209288,10870.949730,-8403.428901,-1237.258463,7251.308233,19924.523821,21949.278945,4710.831310,1749.515742,0.005188,-0.010437,1.006188,192.000000,0.000000,0.000000,0.000000,0.000000,0.000000,0.000000,0.000000,0.000000,0.000000,1770802972.414834,0.000000
166.000000,19256.586642,16485.238550,-3703.773463,-17291.577732,-16762.333126,-2091.117453,-18963.152941,-9190.389119,10886.528896,-8387.179182,-1218.460645,7273.235294,19942.382865,21942.059331,4720.822539,1754.388422,0.005188,-0.010437,1.006188,192.000000,0.000000,0.000000,0.000000,0.000000,0.000000,0.000000,0.000000,0.000000,0.000000,1770802972.414847,0.000000
168.000000,19237.230031,16463.043268,-3718.547966,-17310.643770,-16781.801496,-2095.721912,-18985.392926,-9208.404625,10877.655253,-8384.608732,-1227.356640,7266.574474,19936.817281,21948.586041,4713.111188,1751.907379,0.005188,-0.010437,1.006188,192.000000,0.000000,0.000000,0.000000,0.000000,0.000000,0.000000,0.000000,0.000000,0.000000,1770802972.414860,0.000000
170.000000,19247.757703,16473.481533,-3711.551870,-17302.395976,-16768.949243,-2103.969706,-18975.468752,-9199.106300,10882.237361,-8394.488203,-1230.150608,7262.238236,19933.196298,21947.334343,4719.883766,1758.970530,0.005188,-0.010437,1.006188,192.000000,0.000000,0.000000,0.000000,0.000000,0.000000,0.000000,0.000000,0.000000,0.000000,1770802972.414873,0.000000
172.000000,19246.975392,16477.080164,-3711.194242,-17299.490249,-16771.095010,-2104.595554,-18971.288976,-9198.323989,10885.903047,-8376.182124,-1220.494654,7279.180858,19941.689961,21956.610317,4715.636935,1756.064803,0.004594,-0.011219,1.006094,192.000000,0.000000,16.000000,127.500000,80.000000,15.500000,56.000000,0.000000,0.000000,0.000000,1770802972.414886,0.000000
174.000000,19231.753854,16463.065620,-3720.649030,-17317.930438,-16787.389432,-2096.638333,-18988.857447,-9210.796262,10870.815619,-8398.019778,-1239.046602,7254.258663,19923.070958,21952.408189,4711.725379,1755.170733,0.004594,-0.011219,1.006094,192.000000,0.000000,0.000000,0.000000,0.000000,0.000000,0.000000,0.000000,0.000000,0.000000,1770802972.414898,0.000000
176.000000,19249.747008,16483.629225,-3708.713199,-17300.116098,-16769.932719,-2104.014409,-18969.724354,-9199.553335,10880.337462,-8393.996464,-1226.239053,7268.943759,19930.581144,21944.272154,4713.491167,1754.366071,0.004594,-0.011219,1.006094,192.000000,0.000000,0.000000,0.000000,0.000000,0.000000,0.000000,0.000000,0.000000,0.000000,1770802972.414912,0.000000
178.000000,19235.620706,16463.490303,-3718.458559,-17320.836165,-16786.540066,-2123.393372,-18990.198551,-9213.858451,10877.789364,-8388.766156,-1228.071896,7264.227541,19934.492699,21940.829985,4712.954725,1750.409812,0.004594,-0.011219,1.006094,192.000000,0.000000,0.000000,0.000000,0.000000,0.000000,0.000000,0.000000,0.000000,0.000000,1770802972.414924,0.000000
180.000000,19241.521566,16467.111286,-3714.994039,-17311.716653,-16781.153295,-2098.158252,-18983.962415,-9208.806957,10879.845724,-8406.066406,-1232.497541,7251.710564,19924.546173,21929.318837,4713.379409,1755.349547,0.004594,-0.011219,1.006094,192.000000,0.000000,0.000000,0.000000,0.000000,0.000000,0.000000,0.000000,0.000000,0.000000,1770802972.414937,0.000000
182.000000,19246.707171,16474.621472,-3713.183548,-17306.642807,-16774.268958,-2103.589726,-18977.011022,-9207.599963,10886.953579,-8382.731185,-1219.377067,7271.804782,19936.616115,21953.123445,4714.988734,1755.997748,0.004297,-0.010609,1.004047,192.000000,0.000000,16.000000,127.500000,88.000000,15.500000,40.000000,0.000000,0.000000,0.000000,1770802972.414950,0.000000
184.000000,19235.978333,16461.903329,-3718.860891,-17324.278334,-16785.690699,-2128.601328,-18992.098450,-9216.093626,10876.112983,-8404.367674,-1238.957195,7244.803875,19924.635580,21932.604543,4716.285135,1749.918073,0.004297,-0.010609,1.004047,192.000000,0.000000,0.000000,0.000000,0.000000,0.000000,0.000000,0.000000,0.000000,0.000000,1770802972.414962,0.000000
186.000000,19251.266927,16480.924664,-3709.204937,-17304.698206,-16767.697545,-2095.923078,-18972.160694,-9200.492108,10891.446279,-8391.604828,-1222.573366,7264.629872,19938.918345,21940.584116,4718.073275,1749.068707,0.004297,-0.010609,1.004047,192.000000,0.000000,0.000000,0.000000,0.000000,0.000000,0.000000,0.000000,0.000000,0.000000,1770802972.414976,0.000000
188.000000,19237.565307,16464.451428,-3718.615022,-17322.870174,-16782.874380,-2121.716991,-18988.097487,-9211.198594,10881.924436,-8385.033415,-1227.803675,7260.561855,19937.353723,21950.508291,4711.434807,1744.039565,0.004297,-0.010609,1.004047,192.000000,0.000000,0.000000,0.000000,0.000000,0.000000,0.000000,0.000000,0.000000,0.000000,1770802972.414989,0.000000
190.000000,19249.165863,16476.499018,-3714.077617,-17310.733177,-16773.956033,-2097.085368,-18980.408487,-9201.095605,10890.306340,-8395.158755,-1227.580157,7255.040974,19934.716217,21935.130290,4717.156853,1749.336928,0.004297,-0.010609,1.004047,192.000000,0.000000,0.000000,0.000000,0.000000,0.000000,0.000000,0.000000,0.000000,0.000000,1770802972.415002,0.000000
192.000000,19253.479749,16482.310472,-3712.758864,-17305.458165,-16771.877321,-2081.573258,-18975.289938,-9198.480451,10896.251905,-8374.706909,-1217.655983,7277.035091,19949.401313,21943.132215,4714.094664,1750.499219,0.004297,-0.010609,1.004047,192.000000,0.000000,0.000000,0.000000,0.000000,0.000000,0.000000,0.000000,0.000000,0.000000,1770802972.415014,0.000000
194.000000,19245.142549,16472.609815,-3715.306963,-17315.963485,-16782.941435,-2098.739397,-18986.465810,-9205.029512,10886.573599,-8393.594133,-1232.341079,7255.711526,19926.557830,21937.343113,4711.770083,1757.204742,0.002000,-0.006000,1.006000,192.000000,0.000000,8.000000,127.500000,104.000000,15.500000,56.000000,0.000000,0.000000,0.000000,1770802972.895898,0.000000
196.000000,19258.352430,16489.910065,-3702.879393,-17295.444583,-16759.136827,-2086.758862,-18965.388115,-9190.836154,10900.431681,-8380.540714,-1214.817311,7279.471431,19938.627772,21946.507328,4719.213214,1764.781983,0.002000,-0.006000,1.006000,192.000000,0.000000,0.000000,0.000000,0.000000,0.000000,0.000000,0.000000,0.000000,0.000000,1770802972.895958,0.000000
198.000000,19236.850052,16466.708954,-3716.066923,-17316.566982,-16781.689737,-2116.307869,-18986.264644,-9209.410454,10885.612474,-8378.730223,-1226.037887,7271.178934,19939.857118,21947.088474,4713.513519,1755.640120,0.002000,-0.006000,1.006000,192.000000,0.000000,0.000000,0.000000,0.000000,0.000000,0.000000,0.000000,0.000000,0.000000,1770802972.896004,0.000000
200.000000,19242.102711,16469.167646,-3709.875489,-17309.950866,-16777.331147,-2108.037723,-18979.000327,-9203.241372,10891.334521,-8396.969247,-1230.061201,7257.924349,19934.738569,21936.493747,4716.709818,1751.102716,0.002000,-0.006000,1.006000,192.000000,0.000000,0.000000,0.000000,0.000000,0.000000,0.000000,0.000000,0.000000,0.000000,1770802972.896061,0.000000
202.000000,19251.222223,16482.310472,-3706.545080,-17297.411537,-16771.296176,-2095.476043,-18970.037278,-9195.082986,10899.001169,-8371.979996,-1215.331401,7281.438384,19950.295383,21955.336267,4715.703990,1757.338853,0.002000,-0.006000,1.006000,192.000000,0.000000,0.000000,0.000000,0.000000,0.000000,0.000000,0.000000,0.000000,0.000000,1770802972.896106,0.000000
204.000000,19235.017208,16462.260957,-3717.944469,-17315.359988,-16792.195057,-2121.180549,-18989.550351,-9208.091701,10887.713538,-8392.923581,-1233.413963,7259.377212,19929.038874,21935.063235,4707.769121,1749.605149,0.008000,-0.008000,1.006000,192.000000,0.000000,32.000000,127.500000,96.000000,15.500000,56.000000,0.000000,0.000000,0.000000,1770802972.896155,0.000000
206.000000,19259.470017,16488.323091,-3706.187452,-17294.036423,-16762.310775,-2110.272898,-18968.137380,-9192.132556,10897.838878,-8383.580552,-1219.511177,7276.968035,19932.570449,21941.120558,4715.122845,1749.716908,0.008000,-0.008000,1.006000,192.000000,0.000000,0.000000,0.000000,0.000000,0.000000,0.000000,0.000000,0.000000,0.000000,1770802972.896194,0.000000
208.000000,19239.465206,16464.518483,-3722.906556,-17317.416348,-16789.199923,-2112.396313,-18991.137325,-9213.053788,10893.100309,-8374.930426,-1227.177826,7271.983596,19942.584031,21956.811483,4710.697199,1749.180466,0.008000,-0.008000,1.006000,192.000000,0.000000,0.000000,0.000000,0.000000,0.000000,0.000000,0.000000,0.000000,0.000000,1770802972.896205,0.000000
210.000000,19249.277621,16476.275501,-3710.233117,-17304.854668,-16780.438039,-2090.335141,-18979.268548,-9202.548468,10887.937056,-8391.157793,-1233.436314,7261.388869,19926.982513,21944.741541,4713.401760,1757.160039,0.008000,-0.008000,1.006000,192.000000,0.000000,0.000000,0.000000,0.000000,0.000000,0.000000,0.000000,0.000000,0.000000,1770802972.896217,0.000000
212.000000,19252.764494,16480.701146,-3710.993077,-17298.998511,-16778.135810,-2086.736511,-18975.580511,-9200.648570,10889.099346,-8368.001386,-1218.393590,7282.421861,19938.225441,21946.306163,4709.512557,1753.069669,0.008000,-0.008000,1.006000,192.000000,0.000000,0.000000,0.000000,0.000000,0.000000,0.000000,0.000000,0.000000,0.000000,1770802972.896229,0.000000
214.000000,19238.504081,16468.318280,-3718.860891,-17315.337636,-16792.217409,-2103.813243,-18991.360842,-9211.489166,10875.084803,-8385.167525,-1235.984413,7258.974881,19920.098176,21943.646305,4708.886708,1750.789791,0.006000,-0.010000,1.008000,192.000000,0.000000,24.000000,127.500000,88.000000,15.500000,64.000000,0.000000,0.000000,0.000000,1770802972.896241,0.000000
216.000000,19254.954965,16489.686547,-3710.590745,-17299.870229,-16776.392374,-2103.097988,-18970.417258,-9195.485317,10883.980797,-8377.612636,-1224.853244,7277.236256,19928.435377,21943.601602,4713.692333,1748.018175,0.006000,-0.010000,1.008000,192.000000,0.000000,0.000000,0.000000,0.000000,0.000000,0.000000,0.000000,0.000000,0.000000,1770802972.896254,0.000000
218.000000,19228.848127,16463.266786,-3728.516844,-17320.858517,-16801.649845,-2126.075581,-18993.059575,-9215.713646,10865.205331,-8377.545581,-1237.079649,7270.642492,19923.674455,21938.550107,4702.538812,1737.691669,0.006000,-0.010000,1.008000,192.000000,0.000000,0.000000,0.000000,0.000000,0.000000,0.000000,0.000000,0.000000,0.000000,1770802972.896276,0.000000
220.000000,19236.335961,16470.687565,-3718.503263,-17312.051929,-16791.815077,-2121.426418,-18983.068345,-9206.661189,10869.809791,-8393.012988,-1240.164189,7260.628910,19921.349874,21929.967037,4705.198670,1738.943367,0.006000,-0.010000,1.008000,192.000000,0.000000,0.000000,0.000000,0.000000,0.000000,0.000000,0.000000,0.000000,0.000000,1770802972.896288,0.000000
222.000000,19241.633325,16471.626338,-3719.084408,-17311.582543,-16788.037632,-2128.713087,-18982.286034,-9208.963419,10871.642634,-8375.980958,-1229.256538,7277.884457,19935.006790,21940.718227,4705.243374,1736.708192,0.006000,-0.010000,1.008000,192.000000,0.000000,0.000000,0.000000,0.000000,0.000000,0.000000,0.000000,0.000000,0.000000,1770802972.896299,0.000000
224.000000,19227.797595,16457.768256,-3724.091199,-17321.059682,-16808.757700,-2118.610098,-18996.792316,-9217.390027,10863.886579,-8397.997427,-1247.741431,7251.531750,19914.957275,21924.669674,4702.069426,1740.418582,0.010000,-0.014000,1.004000,192.000000,0.000000,40.000000,127.500000,72.000000,15.500000,48.000000,0.000000,0.000000,0.000000,1770802972.896311,0.000000
226.000000,19252.719790,16491.072356,-3708.064998,-17295.377528,-16785.824810,-2096.146595,-18972.160694,-9196.334683,10875.867114,-8382.507668,-1228.541282,7275.917503,19925.239077,21947.066122,4706.025685,1747.235864,0.010000,-0.014000,1.004000,192.000000,0.000000,0.000000,0.000000,0.000000,0.000000,0.000000,0.000000,0.000000,0.000000,1770802972.896323,0.000000
228.000000,19241.320400,16476.119039,-3717.005696,-17309.369720,-16806.746043,-2112.016334,-18988.566874,-9205.051864,10876.828239,-8356.154961,-1227.356640,7283.159469,19931.341103,21963.762875,4700.035417,1744.866579,0.010000,-0.014000,1.004000,192.000000,0.000000,0.000000,0.000000,0.000000,0.000000,0.000000,0.000000,0.000000,0.000000,1770802972.896334,0.000000
230.000000,19249.568194,16488.636015,-3707.707370,-17303.401804,-16791.323339,-2121.091142,-18978.150961,-9196.111166,10886.439489,-8378.976092,-1223.914471,7276.006910,19928.994170,21949.614221,4704.125786,1744.419544,0.010000,-0.014000,1.004000,192.000000,0.000000,0.000000,0.000000,0.000000,0.000000,0.000000,0.000000,0.000000,0.000000,1770802972.896345,0.000000
232.000000,19248.674124,16484.590350,-3709.093178,-17301.434851,-16791.166877,-2100.281668,-18975.379345,-9200.156832,10887.065338,-8366.325005,-1213.833834,7288.903867,19936.414949,21963.204081,4703.209365,1739.993899,0.010000,-0.014000,1.004000,192.000000,0.000000,0.000000,0.000000,0.000000,0.000000,0.000000,0.000000,0.000000,0.000000,1770802972.896357,0.000000
234.000000,19231.418578,16466.731306,-3715.128149,-17317.863383,-16804.823793,-2121.001735,-18990.645586,-9212.584402,10872.648462,-8388.743805,-1230.240015,7261.277111,19922.735682,21937.879555,4704.908097,1735.724716,0.006000,-0.014000,1.010000,192.000000,0.000000,24.000000,127.500000,72.000000,15.500000,72.000000,0.000000,0.000000,0.000000,1770802972.896369,0.000000
236.000000,19244.539052,16480.231760,-3704.064036,-17301.501906,-16783.611987,-2119.839444,-18970.752534,-9202.973152,10876.560018,-8386.910961,-1221.858111,7274.107012,19931.229345,21938.550107,4710.428978,1739.077477,0.006000,-0.014000,1.010000,192.000000,0.000000,0.000000,0.000000,0.000000,0.000000,0.000000,0.000000,0.000000,0.000000,1770802972.896381,0.000000
238.000000,19217.761662,16452.135617,-3721.721914,-17324.837127,-16805.002607,-2130.188302,-18994.355976,-9224.989620,10861.159666,-8391.448366,-1235.492675,7262.104125,19922.333350,21950.195366,4704.841042,1731.813160,0.006000,-0.014000,1.010000,192.000000,0.000000,0.000000,0.000000,0.000000,0.000000,0.000000,0.000000,0.000000,0.000000,1770802972.896392,0.000000
240.000000,19229.429272,16461.076315,-3713.429417,-17314.868249,-16797.335958,-2111.256374,-18985.459982,-9215.221908,10863.372488,-8407.809843,-1241.684108,7252.269358,19910.196353,21916.824212,4709.892536,1736.797599,0.006000,-0.014000,1.010000,192.000000,0.000000,0.000000,0.000000,0.000000,0.000000,0.000000,0.000000,0.000000,0.000000,1770802972.896404,0.000000
242.000000,19236.000685,16468.385335,-3713.876452,-17309.079147,-16790.183400,-2121.851101,-18980.006156,-9214.350189,10866.300567,-8387.313293,-1228.407172,7272.140059,19921.104005,21932.291619,4703.902269,1733.578948,0.006000,-0.014000,1.010000,192.000000,0.000000,0.000000,0.000000,0.000000,0.000000,0.000000,0.000000,0.000000,0.000000,1770802972.896415,0.000000
244.000000,19219.102766,16452.761466,-3721.207824,-17323.473671,-16799.548781,-2129.495398,-18995.607674,-9224.676695,10857.941015,-8406.938125,-1242.891102,7246.256738,19910.352815,21921.652188,4702.918792,1735.232977,0.010000,-0.008000,1.006000,192.000000,0.000000,40.000000,127.500000,96.000000,15.500000,56.000000,0.000000,0.000000,0.000000,1770802972.896427,0.000000
246.000000,19244.762569,16477.035460,-3709.808434,-17306.531049,-16779.007528,-2119.481816,-18976.072249,-9209.633971,10871.106192,-8392.208325,-1228.496579,7263.221712,19916.387786,21932.649247,4708.484376,1737.669317,0.010000,-0.008000,1.006000,192.000000,0.000000,0.000000,0.000000,0.000000,0.000000,0.000000,0.000000,0.000000,0.000000,1770802972.896438,0.000000
248.000000,19225.137737,16451.845044,-3721.699562,-17325.284162,-16805.986083,-2120.577052,-18995.272397,-9221.905079,10863.908930,-8392.588305,-1232.475189,7258.840771,19914.018502,21937.164299,4705.198670,1735.925881,0.010000,-0.008000,1.006000,192.000000,0.000000,0.000000,0.000000,0.000000,0.000000,0.000000,0.000000,0.000000,0.000000,1770802972.896450,0.000000
250.000000,19238.258211,16471.939262,-3714.122321,-17312.610723,-16797.268903,-2110.161139,-18984.454153,-9209.298695,10864.579483,-8400.970209,-1236.923186,7251.710564,19905.614246,21919.417014,4707.210327,1735.523550,0.010000,-0.008000,1.006000,192.000000,0.000000,0.000000,0.000000,0.000000,0.000000,0.000000,0.000000,0.000000,0.000000,1770802972.896463,0.000000
252.000000,19242.348581,16478.957710,-3715.575184,-17305.994607,-16786.271845,-2104.193223,-18980.229673,-9207.085873,10873.430773,-8375.511572,-1224.294451,7277.169201,19913.102080,21941.969924,4703.656400,1732.506064,0.010000,-0.008000,1.006000,192.000000,0.000000,0.000000,0.000000,0.000000,0.000000,0.000000,0.000000,0.000000,0.000000,1770802972.896475,0.000000
254.000000,19234.726636,16469.771143,-3719.978478,-17316.052892,-16794.519638,-2124.578014,-18991.763174,-9211.578573,10863.797172,-8392.498898,-1244.008689,7255.689175,19904.384900,21931.308142,4698.627257,1733.467189,0.010000,-0.014000,1.006000,192.000000,0.000000,40.000000,127.500000,72.000000,15.500000,56.000000,0.000000,0.000000,0.000000,1770802972.896487,0.000000
0.000000,19255.334944,16488.144277,-3706.343914,-17295.623397,-16781.130943,-2101.980400,-18968.159731,-9194.680654,10880.762146,-8379.780755,-1226.037887,7276.543352,19918.287685,21946.529680,4704.349304,1737.736373,0.010000,-0.014000,1.006000,192.000000,0.000000,0.000000,0.000000,0.000000,0.000000,0.000000,0.000000,0.000000,0.000000,1770802972.896498,0.000000
2.000000,19237.118272,16465.926643,-3718.883242,-17313.929476,-16803.415633,-2098.895860,-18987.829267,-9211.019780,10871.642634,-8378.886685,-1229.725925,7271.670672,19919.561734,21944.763892,4697.710836,1737.602262,0.010000,-0.014000,1.006000,192.000000,0.000000,0.000000,0.000000,0.000000,0.000000,0.000000,0.000000,0.000000,0.000000,1770802972.896509,0.000000
4.000000,19241.968601,16472.408649,-3715.128149,-17309.928514,-16796.687758,-2105.623735,-18983.448325,-9207.644666,10873.229608,-8394.085871,-1234.196274,7259.265454,19914.107909,21937.499575,4701.577687,1743.346661,0.010000,-0.014000,1.006000,192.000000,0.000000,0.000000,0.000000,0.000000,0.000000,0.000000,0.000000,0.000000,0.000000,1770802972.896521,0.000000
6.000000,19242.482691,16472.229835,-3716.558661,-17309.414424,-16787.054156,-2112.619831,-18981.682537,-9208.583439,10876.112983,-8376.539752,-1227.490750,7274.129364,19927.206031,21945.926183,4699.118996,1735.300033,0.010000,-0.014000,1.006000,192.000000,0.000000,0.000000,0.000000,0.000000,0.000000,0.000000,0.000000,0.000000,0.000000,1770802972.896532,0.000000
8.000000,19228.445796,16453.275556,-3722.615984,-17329.083959,-16799.437022,-2139.643090,-18998.088717,-9220.474567,10862.791343,-8401.573706,-1245.372146,7246.212035,19912.073900,21934.415035,4701.823557,1733.646003,0.008000,-0.012000,1.004000,192.000000,0.000000,24.000000,127.500000,88.000000,15.500000,40.000000,0.000000,0.000000,0.000000,1770802972.896544,0.000000
10.000000,19248.987049,16475.739059,-3708.422626,-17302.932418,-16785.288368,-2115.324392,-18973.837074,-9201.676750,10877.096460,-8395.382273,-1226.730791,7263.534637,19916.700711,21925.072005,4704.081083,1735.724716,0.008000,-0.012000,1.004000,192.000000,0.000000,0.000000,0.000000,0.000000,0.000000,0.000000,0.000000,0.000000,0.000000,1770802972.896555,0.000000
12.000000,19233.005551,16459.981079,-3721.297231,-17321.350255,-16805.919028,-2120.241776,-18994.087755,-9215.780701,10872.514352,-8386.061595,-1227.244881,7262.037070,19920.120528,21925.586096,4696.481490,1734.495370,0.008000,-0.012000,1.004000,192.000000,0.000000,0.000000,0.000000,0.000000,0.000000,0.000000,0.000000,0.000000,0.000000,1770802972.896567,0.000000
14.000000,19253.770322,16480.857608,-3711.596574,-17310.107328,-16794.385528,-2118.565395,-18982.308386,-9200.626218,10878.415212,-8399.629104,-1224.786189,7255.867989,19917.527725,21923.037997,4701.465929,1739.748030,0.008000,-0.012000,1.004000,192.000000,0.000000,0.000000,0.000000,0.000000,0.000000,0.000000,0.000000,0.000000,0.000000,1770802972.896578,0.000000
16.000000,19254.396171,16482.444582,-3712.915327,-17307.693339,-16784.439002,-2115.503206,-18979.201493,-9202.123785,10888.697015,-8371.912941,-1210.391666,7280.946646,19934.984438,21943.266325,4704.394007,1742.296129,0.008000,-0.012000,1.004000,192.000000,0.000000,0.000000,0.000000,0.000000,0.000000,0.000000,0.000000,0.000000,0.000000,1770802972.896590,0.000000
18.000000,19241.163938,16468.295928,-3718.615022,-17322.289028,-16801.851011,-2117.090180,-18995.071232,-9212.986733,10875.397727,-8393.705892,-1232.452838,7252.805800,19928.636542,21927.910677,4702.047074,1740.105658,0.006000,-0.009000,1.001000,192.000000,0.000000,16.000000,127.500000,104.000000,15.500000,24.000000,0.000000,0.000000,0.000000,1770802972.896601,0.000000
20.000000,19261.325212,16487.563132,-3706.187452,-17305.413461,-16780.482743,-2113.893880,-18974.127647,-9197.385215,10887.333558,-8386.195706,-1217.164244,7268.206152,19935.185604,21934.057407,4704.706932,1736.350565,0.006000,-0.009000,1.001000,192.000000,0.000000,0.000000,0.000000,0.000000,0.000000,0.000000,0.000000,0.000000,0.000000,1770802972.896613,0.000000
22.000000,19239.241688,16461.903329,-3719.419684,-17326.401749,-16797.447717,-2125.941470,-18994.467735,-9215.177204,10882.125602,-8381.434784,-1222.752180,7260.047765,19938.203089,21932.738654,4702.382350,1734.875349,0.006000,-0.009000,1.001000,192.000000,0.000000,0.000000,0.000000,0.000000,0.000000,0.000000,0.000000,0.000000,0.000000,1770802972.896624,0.000000
24.000000,19249.076456,16471.671041,-3716.759827,-17318.958619,-16791.502153,-2125.717953,-18988.253950,-9208.851660,10880.918608,-8398.220944,-1231.268195,7246.793180,19927.697769,21926.614276,4702.494109,1733.511893,0.006000,-0.009000,1.001000,192.000000,0.000000,0.000000,0.000000,0.000000,0.000000,0.000000,0.000000,0.000000,0.000000,1770802972.896636,0.000000
26.000000,19256.430180,16479.024765,-3715.910460,-17309.280313,-16780.750964,-2120.465293,-18980.184970,-9203.308428,10887.959407,-8370.102450,-1216.493692,7273.659977,19939.186566,21937.320761,4701.488280,1732.595471,0.006000,-0.009000,1.001000,192.000000,0.000000,0.000000,0.000000,0.000000,0.000000,0.000000,0.000000,0.000000,0.000000,1770802972.896649,0.000000
28.000000,19237.028865,16459.109361,-3724.202958,-17324.121871,-16795.726633,-2127.997831,-18996.188819,-9215.266611,10877.878771,-8392.476546,-1233.972756,7250.145942,19924.881449,21929.207078,4700.035417,1737.624614,0.006000,-0.009000,1.001000,192.000000,0.000000,0.000000,127.500000,96.000000,15.500000,16.000000,0.000000,0.000000,0.000000,1770802972.896661,0.000000
30.000000,19258.732409,16481.215236,-3710.322524,-17303.491211,-16778.158161,-2115.503206,-18973.904130,-9195.820593,10886.305378,-8387.402700,-1223.646250,7264.741631,19929.776481,21934.102110,4704.103435,1742.296129,0.006000,-0.009000,1.001000,192.000000,0.000000,0.000000,0.000000,0.000000,0.000000,0.000000,0.000000,0.000000,0.000000,1770802972.896673,0.000000
32.000000,19243.510871,16464.674945,-3727.309850,-17325.485328,-16801.985121,-2120.197072,-18995.451211,-9210.975076,10888.205277,-8380.920694,-1224.585023,7268.116745,19932.123415,21933.252744,4701.242411,1743.458419,0.006000,-0.009000,1.001000,192.000000,0.000000,0.000000,0.000000,0.000000,0.000000,0.000000,0.000000,0.000000,0.000000,1770802972.896684,0.000000
34.000000,19251.222223,16474.152085,-3720.179644,-17313.191868,-16796.978330,-2102.874470,-18985.214112,-9200.380349,10890.351044,-8395.426976,-1225.300279,7260.450096,19918.779423,21936.829023,4699.186051,1742.094963,0.006000,-0.009000,1.001000,192.000000,0.000000,0.000000,0.000000,0.000000,0.000000,0.000000,0.000000,0.000000,0.000000,1770802972.896696,0.000000
36.000000,19259.559424,16485.283254,-3713.451769,-17304.742909,-16787.232970,-2110.541118,-18974.060592,-9192.557239,10895.804870,-8373.388156,-1206.860090,7282.868896,19925.306132,21937.499575,4700.661266,1739.032774,0.006000,-0.009000,1.001000,192.000000,0.000000,0.000000,0.000000,0.000000,0.000000,0.000000,0.000000,0.000000,0.000000,1770802972.896707,0.000000
38.000000,19246.707171,16469.033536,-3721.096065,-17323.384264,-16804.175592,-2135.664479,-18991.047918,-9204.202498,10886.595951,-8390.107261,-1220.919337,7260.181875,19907.044757,21924.624971,4698.247278,1735.255329,0.000000,-0.010500,1.000500,192.000000,127.500000,104.000000,127.500000,80.000000,15.500000,32.000000,0.000000,0.000000,0.000000,1770802972.896719,0.000000
40.000000,19264.208587,16489.999472,-3711.194242,-17301.524258,-16789.736365,-2101.399255,-18970.797237,-9192.266666,10893.167364,-8383.848773,-1212.090398,7274.464640,19912.610342,21931.062273,4699.409568,1738.921015,0.000000,-0.010500,1.000500,192.000000,0.000000,0.000000,0.000000,0.000000,0.000000,0.000000,0.000000,0.000000,0.000000,1770802972.896730,0.000000
42.000000,19241.543918,16466.753658,-3725.499359,-17318.377473,-16808.936514,-2108.775331,-18991.226732,-9213.769044,10883.891390,-8373.455211,-1220.293489,7273.749384,19913.057377,21943.042808,4697.263801,1742.519646,0.000000,-0.010500,1.000500,192.000000,0.000000,0.000000,0.000000,0.000000,0.000000,0.000000,0.000000,0.000000,0.000000,1770802972.896742,0.000000
44.000000,19245.433121,16468.385335,-3719.442036,-17315.270581,-16798.788822,-2113.893880,-18984.811781,-9208.158756,10879.510448,-8393.549430,-1231.290547,7258.371384,19903.602589,21932.269267,4701.197708,1743.145495,0.000000,-0.010500,1.000500,192.000000,0.000000,0.000000,0.000000,0.000000,0.000000,0.000000,0.000000,0.000000,0.000000,1770802972.896753,0.000000
46.000000,19246.751874,16470.285233,-3718.972649,-17314.600028,-16792.150353,-2124.801531,-18980.564950,-9204.761291,10881.298587,-8378.037319,-1218.170073,7276.789221,19916.141917,21938.371293,4701.823557,1737.177579,0.000000,-0.010500,1.000500,192.000000,0.000000,0.000000,0.000000,0.000000,0.000000,0.000000,0.000000,0.000000,0.000000,1770802972.896765,0.000000
48.000000,19231.530336,16454.884881,-3724.515882,-17328.033427,-16808.176554,-2145.409840,-18995.004176,-9214.976038,10869.474515,-8400.903154,-1234.799771,7251.643509,19899.199295,21918.321779,4698.090815,1734.227149,0.001000,-0.010250,1.000250,192.000000,0.000000,8.000000,127.500000,88.000000,15.500000,32.000000,0.000000,0.000000,0.000000,1770802972.896777,0.000000
50.000000,19253.591508,16477.706012,-3711.931850,-17309.637941,-16787.836467,-2137.139694,-18974.060592,-9197.720492,10881.969140,-8391.448366,-1219.466474,7268.407317,19910.174001,21918.791165,4702.918792,1737.088172,0.001000,-0.010250,1.000250,192.000000,0.000000,0.000000,0.000000,0.000000,0.000000,0.000000,0.000000,0.000000,0.000000,1770802972.896788,0.000000
52.000000,19233.296124,16454.057867,-3728.718010,-17327.519337,-16811.953999,-2132.781104,-18993.998348,-9216.451253,10877.275273,-8386.888610,-1224.406210,7265.479239,19905.077804,21918.187668,4698.113167,1733.646003,0.001000,-0.010250,1.000250,192.000000,0.000000,0.000000,0.000000,0.000000,0.000000,0.000000,0.000000,0.000000,0.000000,1770802972.896800,0.000000
54.000000,19235.799520,16456.829483,-3721.051362,-17316.544630,-16796.017205,-2107.836557,-18983.873008,-9209.611620,10878.191695,-8398.422110,-1231.759933,7253.878683,19899.020481,21922.479203,4699.946010,1744.352489,0.001000,-0.010250,1.000250,192.000000,0.000000,0.000000,0.000000,0.000000,0.000000,0.000000,0.000000,0.000000,0.000000,1770802972.896811,0.000000
56.000000,19248.383552,16466.597195,-3721.364286,-17312.297799,-16793.022071,-2120.085313,-18978.374479,-9205.498899,10883.891390,-8377.366767,-1219.265308,7273.749384,19917.147746,21943.221622,4705.176318,1742.765515,0.001000,-0.010250,1.000250,192.000000,0.000000,0.000000,0.000000,0.000000,0.000000,0.000000,0.000000,0.000000,0.000000,1770802972.896823,0.000000
58.000000,19231.530336,16449.095780,-3728.405086,-17328.279296,-16808.780051,-2123.750999,-18993.886589,-9216.473605,10872.112021,-8401.149023,-1237.616090,7247.284919,19897.254693,21913.203229,4699.878955,1739.971547,0.005500,-0.011125,0.998125,192.000000,0.000000,40.000000,127.500000,80.000000,15.500000,16.000000,0.000000,0.000000,0.000000,1770802973.375207,0.000000
60.000000,19255.424351,16476.722536,-3714.435245,-17303.804136,-16783.120249,-2086.311827,-18970.171388,-9195.395910,10884.338425,-8391.582476,-1222.372201,7265.054556,19906.776536,21933.990351,4705.802167,1742.094963,0.005500,-0.011125,0.998125,192.000000,0.000000,0.000000,0.000000,0.000000,0.000000,0.000000,0.000000,0.000000,0.000000,1770802973.375266,0.000000
62.000000,19237.006514,16458.259995,-3728.181568,-17320.903220,-16797.559476,-2112.865700,-18990.690290,-9210.729207,10881.343291,-8377.612636,-1224.607375,7267.177971,19911.604513,21935.689084,4704.550469,1739.390402,0.005500,-0.011125,0.998125,192.000000,0.000000,0.000000,0.000000,0.000000,0.000000,0.000000,0.000000,0.000000,0.000000,1770802973.375311,0.000000
64.000000,19249.478787,16468.810018,-3722.750094,-17311.046101,-16794.430231,-2110.697581,-18982.777772,-9200.313294,10882.572637,-8390.263723,-1231.625823,7259.287805,19908.877600,21930.682293,4704.975153,1741.737335,0.005500,-0.011125,0.998125,192.000000,0.000000,0.000000,0.000000,0.000000,0.000000,0.000000,0.000000,0.000000,0.000000,1770802973.375352,0.000000
66.000000,19253.435046,16470.620509,-3723.867681,-17310.107328,-16787.724708,-2108.015371,-18980.073211,-9202.973152,10890.127527,-8370.549485,-1218.907680,7277.839753,19914.867868,21946.395570,4705.176318,1739.613919,0.005500,-0.011125,0.998125,192.000000,0.000000,0.000000,0.000000,0.000000,0.000000,0.000000,0.000000,0.000000,0.000000,1770802973.375392,0.000000
68.000000,19230.546860,16447.754675,-3731.400219,-17328.167537,-16800.308740,-2108.685924,-18996.568799,-9220.005181,10877.364680,-8398.556220,-1242.131143,7246.681422,19892.337309,21926.033130,4705.086911,1745.805352,0.007750,-0.010562,0.997062,192.000000,0.000000,40.000000,127.500000,88.000000,15.500000,16.000000,0.000000,0.000000,0.000000,1770802973.375433,0.000000
70.000000,19243.890851,16467.155989,-3720.514920,-17308.296836,-16780.639205,-2096.772444,-18977.301595,-9209.745730,10882.393823,-8397.170412,-1235.425620,7256.136210,19896.762955,21933.319799,4711.501862,1752.957911,0.007750,-0.010562,0.997062,192.000000,0.000000,0.000000,0.000000,0.000000,0.000000,0.000000,0.000000,0.000000,0.000000,1770802973.375476,0.000000
72.000000,19227.015284,16452.694410,-3730.930833,-17328.011075,-16801.783955,-2119.012430,-18996.322929,-9222.620335,10873.520180,-8387.827383,-1238.577216,7256.404430,19900.160420,21932.962171,4703.812862,1746.185332,0.007750,-0.010562,0.997062,192.000000,0.000000,0.000000,0.000000,0.000000,0.000000,0.000000,0.000000,0.000000,0.000000,1770802973.375488,0.000000
74.000000,19245.880156,16470.441696,-3716.133978,-17316.388168,-16785.422478,-2124.689773,-18982.308386,-9205.543602,10883.913742,-8393.974113,-1232.922224,7255.018622,19899.243998,21930.369369,4710.428978,1745.023041,0.007750,-0.010562,0.997062,192.000000,0.000000,0.000000,0.000000,0.000000,0.000000,0.000000,0.000000,0.000000,0.000000,1770802973.375500,0.000000
76.000000,19253.546805,16475.850818,-3715.485777,-17312.096633,-16781.130943,-2112.642182,-18979.313252,-9203.889573,10893.815564,-8368.850752,-1217.164244,7276.476297,19909.570504,21945.792073,4708.014990,1736.238806,0.007750,-0.010562,0.997062,192.000000,0.000000,0.000000,0.000000,0.000000,0.000000,0.000000,0.000000,0.000000,0.000000,1770802973.375513,0.000000
78.000000,19238.705246,16458.282347,-3721.096065,-17323.384264,-16794.050252,-2111.122264,-18993.663072,-9213.724341,10883.801983,-8392.074214,-1236.096172,7254.124553,19897.746432,21936.806671,4704.125786,1743.301957,0.007750,-0.010562,0.997062,192.000000,0.000000,0.000000,0.000000,0.000000,0.000000,0.000000,0.000000,0.000000,0.000000,1770802973.375525,0.000000
80.000000,19252.518624,16476.946053,-3713.183548,-17306.843973,-16777.018222,-2109.535290,-18976.139304,-9201.050902,10894.553172,-8382.530020,-1224.003878,7268.988463,19907.961179,21947.334343,4706.629182,1745.514780,0.010000,-0.012000,1.000000,192.000000,0.000000,40.000000,127.500000,80.000000,15.500000,32.000000,0.000000,0.000000,0.000000,1770802973.375537,0.000000
82.000000,19232.357351,16455.466027,-3727.555719,-17325.708845,-16803.639150,-2122.678116,-18993.528961,-9217.434730,10880.046890,-8382.306502,-1235.738544,7263.109954,19895.690071,21948.362523,4702.002371,1737.714021,0.010000,-0.012000,1.000000,192.000000,0.000000,0.000000,0.000000,0.000000,0.000000,0.000000,0.000000,0.000000,0.000000,1770802973.375548,0.000000
84.000000,19237.878232,16459.422285,-3723.264184,-17315.114118,-16797.045385,-2093.576144,-18983.962415,-9208.985771,10878.012881,-8399.673808,-1242.779343,7252.649337,19882.122562,21927.888325,4704.595173,1748.353451,0.010000,-0.012000,1.000000,192.000000,0.000000,0.000000,0.000000,0.000000,0.000000,0.000000,0.000000,0.000000,0.000000,1770802973.375560,0.000000
86.000000,19243.153243,16465.434905,-3722.481873,-17307.358063,-16793.804383,-2097.331237,-18979.134438,-9205.141271,10883.042024,-8379.177258,-1233.883349,7275.984559,19891.487943,21944.026285,4699.208403,1751.639158,0.010000,-0.012000,1.000000,192.000000,0.000000,0.000000,0.000000,0.000000,0.000000,0.000000,0.000000,0.000000,0.000000,1770802973.375573,0.000000
88.000000,19237.431197,16460.003431,-3719.844367,-17318.153956,-16802.566266,-2120.889976,-18989.684461,-9208.963419,10876.247093,-8397.684502,-1247.942596,7252.381116,19879.306242,21944.272154,4695.028626,1747.660547,0.010000,-0.012000,1.000000,192.000000,0.000000,0.000000,0.000000,0.000000,0.000000,0.000000,0.000000,0.000000,0.000000,1770802973.375585,0.000000
90.000000,19261.973412,16486.803172,-3704.756940,-17296.808040,-16780.683909,-2099.119377,-18966.729220,-9187.416337,10893.234419,-8384.631084,-1225.903776,7269.323739,19895.533609,21937.007837,4702.225888,1752.086193,0.010000,-0.012000,1.006000,192.000000,0.000000,40.000000,127.500000,80.000000,15.500000,56.000000,0.000000,0.000000,0.000000,1770802973.375607,0.000000
92.000000,19252.786845,16476.521370,-3712.155367,-17315.449395,-16792.195057,-2106.227232,-18984.141229,-9197.005236,10896.184849,-8369.722470,-1219.533529,7274.084660,19897.500562,21949.703628,4701.421225,1742.877274,0.010000,-0.012000,1.006000,192.000000,0.000000,0.000000,0.000000,0.000000,0.000000,0.000000,0.000000,0.000000,0.000000,1770802973.375620,0.000000
94.000000,19259.738238,16483.293949,-3709.361399,-17311.582543,-16786.741231,-2112.195148,-18978.307423,-9190.679692,10898.598838,-8380.853639,-1218.013611,7266.462715,19896.919417,21942.998104,4706.405664,1740.284472,0.010000,-0.012000,1.006000,192.000000,0.000000,0.000000,0.000000,0.000000,0.000000,0.000000,0.000000,0.000000,0.000000,1770802973.375632,0.000000
96.000000,19257.525415,16481.595216,-3711.618926,-17309.414424,-16779.119286,-2125.002697,-18973.792371,-9192.221962,10901.437509,-8364.916845,-1209.452892,7281.103108,19896.695900,21950.843567,4705.824519,1735.255329,0.010000,-0.012000,1.006000,192.000000,0.000000,0.000000,0.000000,0.000000,0.000000,0.000000,0.000000,0.000000,0.000000,1770802973.375644,0.000000
98.000000,19238.168804,16462.707992,-3723.130074,-17323.764244,-16795.972502,-2118.498339,-18991.517304,-9207.935239,10884.897218,-8388.900267,-1234.978585,7250.682384,19877.473399,21935.912601,4702.985847,1734.316556,0.010000,-0.012000,1.006000,192.000000,0.000000,0.000000,0.000000,0.000000,0.000000,0.000000,0.000000,0.000000,0.000000,1770802973.375656,0.000000
100.000000,19258.352430,16484.970329,-3710.143710,-17302.932418,-16779.923949,-2093.240868,-18970.104333,-9192.020797,10891.759204,-8385.234581,-1222.685125,7265.143963,19877.383992,21935.689084,4705.042208,1740.709155,0.012000,-0.012000,1.010000,192.000000,0.000000,48.000000,127.500000,80.000000,15.500000,72.000000,0.000000,0.000000,0.000000,1770802973.375668,0.000000
102.000000,19242.750912,16466.351326,-3720.649030,-17324.144223,-16797.648883,-2133.563415,-18990.287958,-9206.281210,10889.032291,-8376.986787,-1225.948480,7264.942797,19879.440353,21935.644381,4699.275458,1734.249501,0.012000,-0.012000,1.010000,192.000000,0.000000,0.000000,0.000000,0.000000,0.000000,0.000000,0.000000,0.000000,0.000000,1770802973.375679,0.000000
104.000000,19251.669258,16474.979100,-3710.993077,-17314.957656,-16789.289330,-2120.398238,-18979.872046,-9193.160736,10895.603704,-8388.520287,-1227.982489,7255.309195,19872.533664,21925.876668,4703.566993,1734.830646,0.012000,-0.012000,1.010000,192.000000,0.000000,0.000000,0.000000,0.000000,0.000000,0.000000,0.000000,0.000000,0.000000,1770802973.375692,0.000000
106.000000,19251.982183,16474.174437,-3713.809396,-17310.241438,-16783.857856,-2106.517804,-18977.726278,-9196.200573,10896.162498,-8368.202551,-1215.934898,7276.096317,19883.463667,21959.225471,4702.404702,1736.439971,0.012000,-0.012000,1.010000,192.000000,0.000000,0.000000,0.000000,0.000000,0.000000,0.000000,0.000000,0.000000,0.000000,1770802973.375704,0.000000
108.000000,19234.078435,16451.710934,-3723.934737,-17326.222935,-16794.139659,-2125.360325,-18993.260740,-9211.243297,10878.102288,-8397.259819,-1239.314823,7247.530788,19866.342231,21926.301351,4699.253106,1736.887006,0.012000,-0.012000,1.010000,192.000000,0.000000,0.000000,0.000000,0.000000,0.000000,0.000000,0.000000,0.000000,0.000000,1770802973.375716,0.000000
110.000000,19241.610973,16464.987870,-3717.743304,-17307.559229,-16782.561455,-2101.175738,-18975.356993,-9202.369654,10881.902085,-8395.292866,-1231.357602,7258.863122,19866.118713,21931.509308,4704.461062,1745.626538,0.014000,-0.018000,1.006000,192.000000,0.000000,56.000000,127.500000,56.000000,15.500000,56.000000,0.000000,0.000000,0.000000,1770802973.375736,0.000000
112.000000,19223.617819,16445.497149,-3735.222368,-17329.754511,-16805.583752,-2128.735438,-18997.775793,-9219.155815,10867.507561,-8392.901229,-1241.170018,7255.957396,19861.111922,21934.705607,4693.821632,1737.356393,0.014000,-0.018000,1.006000,192.000000,0.000000,0.000000,0.000000,0.000000,0.000000,0.000000,0.000000,0.000000,0.000000,1770802973.375748,0.000000
114.000000,19238.258211,16461.746867,-3719.263222,-17314.398863,-16791.502153,-2129.495398,-18981.213150,-9202.660227,10871.955558,-8405.306447,-1242.108791,7251.598805,19852.685315,21926.591924,4696.459138,1735.724716,0.014000,-0.018000,1.006000,192.000000,0.000000,0.000000,0.000000,0.000000,0.000000,0.000000,0.000000,0.000000,0.000000,1770802973.375760,0.000000
116.000000,19246.997743,16467.938300,-3715.061094,-17311.560191,-16788.797592,-2107.970668,-18974.731144,-9199.151003,10881.186829,-8379.691348,-1222.327497,7275.492820,19869.270309,21947.736674,4696.347379,1731.366126,0.014000,-0.018000,1.006000,192.000000,0.000000,0.000000,0.000000,0.000000,0.000000,0.000000,0.000000,0.000000,0.000000,1770802973.375772,0.000000
118.000000,19226.791766,16446.257108,-3724.471179,-17333.084921,-16806.164897,-2122.119322,-18995.562970,-9215.467777,10867.641672,-8400.612581,-1238.778381,7247.530788,19850.383085,21936.024360,4691.564106,1725.621727,0.014000,-0.018000,1.006000,192.000000,0.000000,0.000000,0.000000,0.000000,0.000000,0.000000,0.000000,0.000000,0.000000,1770802973.375784,0.000000
120.000000,19244.784921,16465.390201,-3714.256431,-17314.041235,-16786.450659,-2121.851101,-18975.513455,-9201.050902,10875.867114,-8398.198592,-1231.178788,7259.891303,19857.580347,21925.250819,4694.715702,1717.798617,0.008000,-0.020000,1.004000,192.000000,0.000000,32.000000,127.500000,48.000000,15.500000,48.000000,0.000000,0.000000,0.000000,1770802973.375796,0.000000
122.000000,19221.248534,16443.150216,-3733.970670,-17331.877927,-16808.444775,-2127.662555,-18998.044014,-9222.083893,10862.321956,-8389.771985,-1240.588873,7257.231445,19854.942841,21925.519040,4692.547583,1722.917166,0.008000,-0.020000,1.004000,192.000000,0.000000,0.000000,0.000000,0.000000,0.000000,0.000000,0.000000,0.000000,0.000000,1770802973.375811,0.000000
124.000000,19227.954057,16449.162835,-3731.020240,-17323.540726,-16801.716900,-2114.095046,-18993.238389,-9217.278268,10857.292814,-8410.000314,-1248.434335,7244.155674,19843.901079,21919.037034,4694.961571,1733.243672,0.008000,-0.020000,1.004000,192.000000,0.000000,0.000000,0.000000,0.000000,0.000000,0.000000,0.000000,0.000000,0.000000,1770802973.375823,0.000000
126.000000,19239.398150,16462.462123,-3727.645126,-17313.147165,-16791.211580,-2113.670363,-18983.336566,-9207.085873,10864.668890,-8385.122822,-1234.464495,7267.088564,19854.942841,21935.934953,4692.905211,1734.115390,0.008000,-0.020000,1.004000,192.000000,0.000000,0.000000,0.000000,0.000000,0.000000,0.000000,0.000000,0.000000,0.000000,1770802973.375835,0.000000
128.000000,19228.401092,16448.313468,-3733.545987,-17328.279296,-16803.236819,-2127.081409,-18997.529924,-9215.534832,10857.382221,-8404.077101,-1244.835704,7246.636718,19839.274268,21924.021473,4690.960609,1736.954062,0.008000,-0.020000,1.004000,192.000000,0.000000,0.000000,0.000000,0.000000,0.000000,0.000000,0.000000,0.000000,0.000000,1770802973.375848,0.000000
130.000000,19246.483653,16466.977175,-3718.167987,-17306.508697,-16788.462316,-2112.217499,-18976.452229,-9198.771024,10873.006090,-8396.276342,-1228.630689,7265.926274,19847.723227,21937.477224,4695.922696,1733.713059,0.008000,-0.016000,1.006000,192.000000,0.000000,32.000000,127.500000,64.000000,15.500000,56.000000,0.000000,0.000000,0.000000,1770802973.375860,0.000000
132.000000,19229.518679,16448.268765,-3729.612080,-17324.390092,-16804.399109,-2143.800514,-18996.613502,-9215.981867,10866.144105,-8386.888610,-1234.352736,7265.948625,19847.969097,21940.159433,4689.999484,1722.403076,0.008000,-0.016000,1.006000,192.000000,0.000000,0.000000,0.000000,0.000000,0.000000,0.000000,0.000000,0.000000,0.000000,1770802973.375872,0.000000
134.000000,19233.519642,16453.186149,-3722.392466,-17320.791462,-16801.918066,-2124.555662,-18989.751517,-9211.578573,10869.787439,-8404.501784,-1238.331346,7252.470523,19841.352980,21932.001046,4698.426091,1729.577986,0.008000,-0.016000,1.006000,192.000000,0.000000,0.000000,0.000000,0.000000,0.000000,0.000000,0.000000,0.000000,0.000000,1770802973.375884,0.000000
136.000000,19239.666371,16462.931509,-3720.894899,-17311.470784,-16789.714013,-2097.018313,-18980.944929,-9207.622314,10870.636805,-8386.620389,-1231.759933,7268.027338,19850.628954,21939.332418,4699.096644,1730.092076,0.008000,-0.016000,1.006000,192.000000,0.000000,0.000000,0.000000,0.000000,0.000000,0.000000,0.000000,0.000000,0.000000,1770802973.375897,0.000000
138.000000,19221.829679,16442.434960,-3731.713144,-17331.073264,-16809.316493,-2119.303002,-18997.596979,-9218.485262,10858.343346,-8404.702950,-1247.942596,7244.021564,19844.929259,21926.100186,4696.503841,1726.873425,0.008000,-0.016000,1.006000,192.000000,0.000000,0.000000,0.000000,0.000000,0.000000,0.000000,0.000000,0.000000,0.000000,1770802973.375909,0.000000
140.000000,19241.678028,16464.853759,-3721.386638,-17309.168554,-16786.718880,-2110.339953,-18976.385173,-9202.079082,10867.060526,-8397.304523,-1235.962061,7259.019585,19846.627992,21937.901907,4695.654475,1733.534245,0.012000,-0.016000,1.008000,192.000000,0.000000,48.000000,127.500000,64.000000,15.500000,64.000000,0.000000,0.000000,0.000000,1770802973.375921,0.000000
142.000000,19224.824813,16445.586556,-3738.150446,-17330.358008,-16804.399109,-2132.199959,-18999.966264,-9220.742788,10858.410401,-8388.743805,-1242.421716,7257.969053,19852.774722,21937.790148,4690.446519,1728.996841,0.012000,-0.016000,1.008000,192.000000,0.000000,0.000000,0.000000,0.000000,0.000000,0.000000,0.000000,0.000000,0.000000,1770802973.375933,0.000000
144.000000,19234.905450,16460.159893,-3725.365248,-17318.913915,-16794.273769,-2113.089217,-18989.550351,-9211.042131,10862.098439,-8402.288962,-1246.467381,7247.575491,19846.002143,21933.677427,4692.547583,1732.550768,0.012000,-0.016000,1.008000,192.000000,0.000000,0.000000,0.000000,0.000000,0.000000,0.000000,0.000000,0.000000,0.000000,1770802973.375945,0.000000
146.000000,19238.347618,16462.998565,-3720.738437,-17312.878944,-16788.842295,-2094.827842,-18982.017813,-9209.812785,10875.218913,-8376.360938,-1228.809503,7267.312082,19862.877710,21960.812445,4695.363902,1737.736373,0.012000,-0.016000,1.008000,192.000000,0.000000,0.000000,0.000000,0.000000,0.000000,0.000000,0.000000,0.000000,0.000000,1770802973.375957,0.000000
148.000000,19217.448737,16439.730399,-3730.528501,-17333.353142,-16805.114365,-2120.152369,-19001.240313,-9224.699047,10856.599910,-8403.428901,-1254.469306,7234.566776,19843.118768,21934.415035,4690.871202,1733.646003,0.012000,-0.016000,1.008000,192.000000,0.000000,0.000000,0.000000,0.000000,0.000000,0.000000,0.000000,0.000000,0.000000,1770802973.375970,0.000000
150.000000,19234.704284,16456.382448,-3719.129112,-17315.449395,-16794.162010,-2120.107665,-18979.693232,-9205.498899,10861.226721,-8403.227735,-1247.160285,7247.486084,19843.297582,21934.012703,4700.057769,1733.266024,0.010000,-0.014000,1.005000,192.000000,0.000000,32.000000,127.500000,80.000000,15.500000,40.000000,0.000000,0.000000,0.000000,1770802973.375982,0.000000
152.000000,19212.374891,16431.773178,-3734.954147,-17331.252078,-16815.284409,-2132.110552,-18997.038185,-9220.988658,10851.727230,-8402.199555,-1249.551922,7244.267433,19838.290791,21937.879555,4696.235621,1730.181483,0.010000,-0.014000,1.005000,192.000000,0.000000,0.000000,0.000000,0.000000,0.000000,0.000000,0.000000,0.000000,0.000000,1770802973.375995,0.000000
154.000000,19228.266982,16451.085085,-3724.135902,-17321.260848,-16799.146449,-2123.549834,-18986.108182,-9207.398797,10854.834122,-8411.252011,-1248.210817,7240.512340,19833.842794,21923.663845,4701.912964,1736.954062,0.010000,-0.014000,1.005000,192.000000,0.000000,0.000000,0.000000,0.000000,0.000000,0.000000,0.000000,0.000000,0.000000,1770802973.376009,0.000000
156.000000,19233.899621,16455.130751,-3723.733571,-17313.549496,-16792.329167,-2111.368133,-18981.079040,-9204.716588,10865.294738,-8393.214153,-1235.559730,7261.500628,19841.844719,21933.275096,4698.917830,1736.328213,0.010000,-0.014000,1.005000,192.000000,0.000000,0.000000,0.000000,0.000000,0.000000,0.000000,0.000000,0.000000,0.000000,1770802973.376021,0.000000
158.000000,19227.484671,16448.715800,-3727.131036,-17325.597087,-16801.202810,-2120.308831,-18993.841886,-9208.874012,10862.612529,-8403.361845,-1247.160285,7245.116799,19836.167376,21934.929125,4696.570897,1734.629480,0.010000,-0.014000,1.005000,192.000000,0.000000,0.000000,0.000000,0.000000,0.000000,0.000000,0.000000,0.000000,0.000000,1770802973.376033,0.000000
160.000000,19248.808235,16474.800286,-3713.876452,-17308.542706,-16777.956996,-2107.367171,-18974.060592,-9192.512535,10877.476439,-8389.660226,-1231.447009,7262.662919,19844.616335,21949.636573,4699.208403,1734.517721,0.006000,-0.016000,1.002500,192.000000,0.000000,8.000000,127.500000,56.000000,15.500000,32.000000,0.000000,0.000000,0.000000,1770802973.376045,0.000000
162.000000,19231.507985,16454.974288,-3727.645126,-17324.948886,-16794.541990,-2106.160177,-18993.081926,-9208.471681,10872.492000,-8378.618464,-1232.139913,7262.461753,19848.706704,21954.017514,4699.007237,1730.449704,0.006000,-0.016000,1.002500,192.000000,0.000000,0.000000,0.000000,0.000000,0.000000,0.000000,0.000000,0.000000,0.000000,1770802973.376058,0.000000
164.000000,19233.586697,16453.655535,-3723.487702,-17321.193793,-16796.352481,-2095.587801,-18988.142191,-9208.494032,10866.009994,-8404.702950,-1246.154457,7241.607576,19831.205288,21947.982543,4699.074292,1740.172713,0.006000,-0.016000,1.002500,192.000000,0.000000,0.000000,0.000000,0.000000,0.000000,0.000000,0.000000,0.000000,0.000000,1770802973.376070,0.000000
166.000000,19233.810214,16450.816864,-3724.180606,-17318.019845,-16789.557551,-2107.031895,-18983.180104,-9208.784605,10868.468686,-8392.029511,-1236.051468,7255.622119,19842.850547,21952.743465,4702.203536,1739.256291,0.006000,-0.016000,1.002500,192.000000,0.000000,0.000000,0.000000,0.000000,0.000000,0.000000,0.000000,0.000000,0.000000,1770802973.376082,0.000000
168.000000,19217.515793,16436.198823,-3735.334126,-17335.633020,-16806.924857,-2127.819017,-19000.502706,-9223.313239,10855.907006,-8416.392912,-1256.391556,7227.414218,19830.512384,21933.990351,4699.856603,1739.837437,0.006000,-0.016000,1.002500,192.000000,0.000000,0.000000,0.000000,0.000000,0.000000,0.000000,0.000000,0.000000,0.000000,1770802973.376095,0.000000
170.000000,19234.681932,16457.410628,-3724.806455,-17315.628209,-16788.618778,-2108.797682,-18981.079040,-9212.316181,10869.765087,-8411.117901,-1245.930939,7243.529826,19833.127538,21937.745445,4703.187013,1738.094001,0.007000,-0.015000,1.002250,192.000000,0.000000,32.000000,127.500000,72.000000,15.500000,40.000000,0.000000,0.000000,0.000000,1770802973.376108,0.000000
172.000000,19216.688778,16436.556451,-3738.619833,-17329.195717,-16803.907371,-2124.041572,-18999.742746,-9231.069294,10858.566863,-8400.076139,-1253.552884,7242.255776,19828.008989,21944.495671,4698.381388,1735.948233,0.007000,-0.015000,1.002250,192.000000,0.000000,0.000000,0.000000,0.000000,0.000000,0.000000,0.000000,0.000000,0.000000,1770802973.376120,0.000000
174.000000,19228.088168,16450.548643,-3729.433266,-17320.634999,-16795.011377,-2123.259261,-18990.265607,-9220.273402,10863.014861,-8411.587287,-1257.844419,7232.108084,19827.293733,21938.930087,4700.661266,1733.981280,0.007000,-0.015000,1.002250,192.000000,0.000000,0.000000,0.000000,0.000000,0.000000,0.000000,0.000000,0.000000,0.000000,1770802973.376132,0.000000
176.000000,19234.301953,16456.293041,-3729.723839,-17316.634037,-16789.512848,-2103.947354,-18986.354051,-9217.077102,10869.474515,-8387.402700,-1241.974681,7252.850503,19836.659114,21958.309049,4701.287115,1733.400134,0.007000,-0.015000,1.002250,192.000000,0.000000,0.000000,0.000000,0.000000,0.000000,0.000000,0.000000,0.000000,0.000000,1770802973.376144,0.000000
178.000000,19219.952133,16439.663343,-3733.143655,-17337.622325,-16799.548781,-2123.661592,-19002.380252,-9226.777759,10860.846741,-8408.167470,-1257.017405,7229.783503,19824.902096,21941.075854,4700.683618,1730.829684,0.007000,-0.015000,1.002250,192.000000,0.000000,0.000000,0.000000,0.000000,0.000000,0.000000,0.000000,0.000000,0.000000,1770802973.856215,0.000000
180.000000,19232.133833,16453.432018,-3720.850196,-17316.254057,-16781.197999,-2118.051305,-18981.995461,-9214.283134,10870.368584,-8406.133462,-1247.584969,7242.300480,19832.769910,21946.552032,4704.908097,1728.549806,0.004500,-0.014500,1.000125,192.000000,0.000000,8.000000,127.500000,72.000000,15.500000,24.000000,0.000000,0.000000,0.000000,1770802973.856277,0.000000
182.000000,19218.074586,16441.943221,-3731.601385,-17330.894450,-16803.594447,-2116.374924,-18998.446345,-9225.727227,10862.836047,-8396.477508,-1249.551922,7242.747515,19829.439501,21949.368352,4701.890612,1734.160094,0.004500,-0.014500,1.000125,192.000000,0.000000,0.000000,0.000000,0.000000,0.000000,0.000000,0.000000,0.000000,0.000000,1770802973.856320,0.000000
184.000000,19225.473014,16447.933489,-3725.879338,-17326.178232,-16793.625569,-2126.701430,-18993.148982,-9218.485262,10862.903102,-8413.286020,-1256.123335,7229.291764,19819.560029,21950.374180,4705.466891,1732.751934,0.004500,-0.014500,1.000125,192.000000,0.000000,0.000000,0.000000,0.000000,0.000000,0.000000,0.000000,0.000000,0.000000,1770802973.856361,0.000000
186.000000,19232.290296,16455.041344,-3724.225309,-17317.237534,-16785.266016,-2116.039648,-18984.878836,-9210.975076,10875.017747,-8392.163621,-1239.717154,7251.956433,19828.053692,21941.768759,4705.645705,1733.064858,0.004500,-0.014500,1.000125,192.000000,0.000000,0.000000,0.000000,0.000000,0.000000,0.000000,0.000000,0.000000,0.000000,1770802973.856405,0.000000
188.000000,19216.107633,16437.584631,-3733.076600,-17331.497947,-16802.543915,-2116.799607,-19000.256836,-9220.787492,10858.633919,-8413.867165,-1257.062108,7226.229575,19814.262666,21934.415035,4701.577687,1733.646003,0.004500,-0.014500,1.000125,192.000000,0.000000,0.000000,0.000000,0.000000,0.000000,0.000000,0.000000,0.000000,0.000000,1770802973.856446,0.000000
190.000000,19239.956944,16462.439771,-3718.927946,-17307.581581,-16782.047365,-2103.433264,-18976.407525,-9199.978018,10871.843800,-8401.238430,-1239.337175,7248.044878,19824.075082,21951.961154,4705.869222,1741.603224,0.004250,-0.014250,1.000063,192.000000,0.000000,16.000000,127.500000,72.000000,15.500000,32.000000,0.000000,0.000000,0.000000,1770802973.856479,0.000000
192.000000,19225.048330,16445.787721,-3729.790894,-17324.635962,-16803.907371,-2123.438075,-18994.981825,-9211.980905,10866.233512,-8393.303560,-1241.974681,7248.938948,19824.611524,21943.802767,4698.157871,1737.602262,0.004250,-0.014250,1.000063,192.000000,0.000000,0.000000,0.000000,0.000000,0.000000,0.000000,0.000000,0.000000,0.000000,1770802973.856490,0.000000
194.000000,19238.749950,16458.885844,-3716.960992,-17313.281275,-16793.044423,-2116.889014,-18984.118877,-9198.860431,10874.816582,-8402.870107,-1242.131143,7240.869968,19818.308332,21940.338247,4701.443577,1742.072611,0.004250,-0.014250,1.000063,192.000000,0.000000,0.000000,0.000000,0.000000,0.000000,0.000000,0.000000,0.000000,0.000000,1770802973.856502,0.000000
196.000000,19239.912240,16456.248338,-3717.899766,-17311.269618,-16791.658615,-2124.265090,-18980.117915,-9201.319122,10881.522105,-8380.875990,-1227.311936,7261.165352,19828.254858,21957.213814,4702.985847,1735.680012,0.004250,-0.014250,1.000063,192.000000,0.000000,0.000000,0.000000,0.000000,0.000000,0.000000,0.000000,0.000000,0.000000,1770802973.856514,0.000000
198.000000,19216.442909,16434.924774,-3726.438132,-17332.660238,-16811.998703,-2153.054136,-18997.038185,-9217.166509,10859.975023,-8411.542584,-1250.758916,7228.330639,19795.800125,21935.577325,4700.325990,1728.572157,0.004250,-0.014250,1.000063,192.000000,0.000000,0.000000,0.000000,0.000000,0.000000,0.000000,0.000000,0.000000,0.000000,1770802973.856526,0.000000
200.000000,19227.551726,16449.520463,-3716.893937,-17311.001397,-16788.305853,-2103.567374,-18977.703926,-9204.828346,10865.093573,-8408.212174,-1241.952329,7242.188721,19798.705852,21939.175956,4706.852699,1732.975451,0.004125,-0.014125,1.001031,192.000000,0.000000,16.000000,127.500000,72.000000,15.500000,40.000000,0.000000,0.000000,0.000000,1770802973.856537,0.000000
202.000000,19207.636322,16430.208555,-3729.634432,-17326.468805,-16804.466165,-2121.471121,-18997.105240,-9221.078065,10850.788456,-8402.490127,-1250.133067,7238.388924,19788.871084,21938.036017,4703.432882,1735.277681,0.004125,-0.014125,1.001031,192.000000,0.000000,0.000000,0.000000,0.000000,0.000000,0.000000,0.000000,0.000000,0.000000,1770802973.856549,0.000000
204.000000,19219.996836,16442.658477,-3723.286536,-17320.389130,-16797.984159,-2125.047401,-18991.919636,-9212.383236,10853.470666,-8413.487186,-1253.418774,7226.766017,19787.977015,21931.911639,4708.886708,1746.587663,0.004125,-0.014125,1.001031,192.000000,0.000000,0.000000,0.000000,0.000000,0.000000,0.000000,0.000000,0.000000,0.000000,1770802973.856561,0.000000
206.000000,19234.704284,16457.298870,-3721.565452,-17312.074281,-16789.222275,-2110.228194,-18984.431801,-9203.397835,10867.395802,-8389.146136,-1231.156436,7252.716393,19805.523134,21945.054465,4704.505766,1747.437030,0.004125,-0.014125,1.001031,192.000000,0.000000,0.000000,0.000000,0.000000,0.000000,0.000000,0.000000,0.000000,0.000000,1770802973.856573,0.000000
208.000000,19223.684874,16442.837291,-3726.639298,-17329.329828,-16806.433118,-2115.346744,-18999.385118,-9211.377407,10866.166456,-8405.954648,-1243.360489,7235.192625,19799.532866,21934.370331,4698.739016,1741.714983,0.004125,-0.014125,1.001031,192.000000,0.000000,0.000000,0.000000,0.000000,0.000000,0.000000,0.000000,0.000000,0.000000,1770802973.856584,0.000000
210.000000,19246.908337,16469.815847,-3709.920193,-17302.217162,-16785.377775,-2108.037723,-18973.770019,-9189.942085,10884.606646,-8393.862354,-1227.200178,7254.929215,19808.317102,21936.069064,4701.801205,1744.039565,0.005063,-0.014062,1.004516,192.000000,0.000000,24.000000,127.500000,72.000000,15.500000,64.000000,0.000000,0.000000,0.000000,1770802973.856596,0.000000
212.000000,19229.809252,16452.560300,-3723.040667,-17323.674837,-16806.656636,-2130.344764,-18995.071232,-9206.616486,10881.186829,-8381.926522,-1229.725925,7258.192570,19813.458003,21943.489843,4700.147176,1739.680974,0.005063,-0.014062,1.004516,192.000000,0.000000,0.000000,0.000000,0.000000,0.000000,0.000000,0.000000,0.000000,0.000000,1770802973.856608,0.000000
214.000000,19236.470072,16461.433942,-3714.301135,-17314.957656,-16798.230028,-2121.068790,-18986.108182,-9198.100471,10875.375375,-8399.964380,-1236.900835,7246.770829,19804.986692,21933.699779,4702.874089,1735.814123,0.005063,-0.014062,1.004516,192.000000,0.000000,0.000000,0.000000,0.000000,0.000000,0.000000,0.000000,0.000000,0.000000,1770802973.856620,0.000000
216.000000,19231.887964,16457.030649,-3717.631545,-17314.197697,-16788.708185,-2121.337011,-18982.531903,-9200.268590,10875.308320,-8382.082985,-1225.255576,7265.278073,19823.829213,21944.652134,4709.758426,1734.383611,0.005063,-0.014062,1.004516,192.000000,0.000000,0.000000,0.000000,0.000000,0.000000,0.000000,0.000000,0.000000,0.000000,1770802973.856632,0.000000
218.000000,19212.307836,16433.091931,-3727.220443,-17334.761302,-16806.611932,-2132.401125,-19002.201438,-9215.534832,10857.136352,-8408.972133,-1247.294396,7233.918576,19803.064442,21933.006875,4706.897403,1730.852035,0.005063,-0.014062,1.004516,192.000000,0.000000,0.000000,0.000000,0.000000,0.000000,0.000000,0.000000,0.000000,0.000000,1770802973.856644,0.000000
220.000000,19227.216450,16451.219195,-3716.089274,-17314.980008,-16780.460391,-2099.007618,-18981.771944,-9204.269553,10869.340404,-8403.942991,-1232.519893,7246.949643,19814.039149,21925.988427,4711.457159,1740.418582,0.005063,-0.014062,1.004516,192.000000,0.000000,0.000000,0.000000,0.000000,0.000000,0.000000,0.000000,0.000000,0.000000,1770802973.856656,0.000000
222.000000,19211.234952,16431.303791,-3731.646089,-17335.722427,-16793.826734,-2122.141674,-19001.955569,-9222.597983,10858.365698,-8406.535793,-1240.365355,7238.634794,19811.044015,21922.658017,4702.337647,1740.485637,0.006000,-0.012000,1.006000,192.000000,0.000000,24.000000,127.500000,80.000000,15.500000,56.000000,0.000000,0.000000,0.000000,1770802973.856668,0.000000
224.000000,19224.623647,16447.709971,-3720.157292,-17325.284162,-16789.579903,-2105.981363,-18993.864238,-9212.271477,10857.784552,-8423.321953,-1245.528608,7225.536671,19798.527038,21914.700796,4705.846871,1750.476867,0.006000,-0.012000,1.006000,192.000000,0.000000,0.000000,0.000000,0.000000,0.000000,0.000000,0.000000,0.000000,0.000000,1770802973.856679,0.000000
226.000000,19239.778130,16464.116152,-3715.530481,-17312.811889,-16778.582845,-2094.984304,-18983.336566,-9200.849736,10876.917646,-8386.620389,-1221.455779,7258.840771,19826.086739,21938.728921,4711.233641,1757.875294,0.006000,-0.012000,1.006000,192.000000,0.000000,0.000000,0.000000,0.000000,0.000000,0.000000,0.000000,0.000000,0.000000,1770802973.856690,0.000000
